##NAMES=Albite
##RRUFFID=R060054
##IDEAL CHEMISTRY=NaAlSi_3_O_8_
##LOCALITY=Mt. Erebus, Antarctica
##OWNER=RRUFF
##SOURCE=Marcus Origlieri
##DESCRIPTION=Dark gray bladed crystal
##STATUS=The identification of this mineral has been confirmed by X-ray diffraction and chemical analysis
##URL=rruff.info/R060054
##MEASURED CHEMISTRY=(Na_0.67_K_0.18_Ca_0.15_)_Σ=1_Al_1.00_(Si_2.85_Al_0.15_)_Σ=3_O_8_
94.30859, 0.0000000E+00
94.79071, 2.753410
95.27283, 4.250015
95.75494, 6.250671
96.23706, 8.889931
96.71918, 10.90338
97.20129, 13.28296
97.68341, 13.87146
98.16553, 11.28732
98.64764, 7.395245
99.12976, 3.767647
99.61188, 0.8424300
100.0940, 1.386383
100.5761, 2.711594
101.0582, 3.083443
101.5403, 2.932831
102.0225, 2.467819
102.5046, 1.744827
102.9867, 0.8277740
103.4688, 0.2584610
103.9509, 1.458740
104.4330, 3.080627
104.9152, 5.158081
105.3973, 7.417984
105.8794, 9.404663
106.3615, 10.96530
106.8436, 12.62357
107.3257, 14.71658
107.8079, 17.43039
108.2900, 19.31499
108.7721, 19.47484
109.2542, 19.05412
109.7363, 19.78629
110.2184, 21.43491
110.7006, 24.42319
111.1827, 28.86859
111.6648, 35.05354
112.1469, 42.05527
112.6290, 50.26797
113.1111, 59.11784
113.5933, 67.90164
114.0754, 76.36841
114.5575, 84.75548
115.0396, 93.16043
115.5217, 102.1949
116.0038, 110.6148
116.4860, 117.8238
116.9681, 124.0966
117.4502, 130.4181
117.9323, 138.0367
118.4144, 145.3558
118.8965, 151.1960
119.3786, 154.0339
119.8608, 156.4431
120.3429, 159.3438
120.8250, 162.7649
121.3071, 166.6745
121.7892, 171.7405
122.2713, 177.1569
122.7535, 181.9576
123.2356, 185.3223
123.7177, 188.1700
124.1998, 190.9150
124.6819, 193.6173
125.1640, 197.0598
125.6462, 202.0165
126.1283, 208.2438
126.6104, 215.2307
127.0925, 222.5530
127.5746, 230.6042
128.0567, 239.7648
128.5389, 250.0908
129.0210, 261.6927
129.5031, 275.2985
129.9852, 290.5141
130.4673, 305.2408
130.9494, 317.7599
131.4316, 328.5994
131.9137, 337.3669
132.3958, 343.7274
132.8779, 350.9050
133.3600, 358.9110
133.8421, 367.6583
134.3243, 376.7103
134.8064, 385.6092
135.2885, 394.3477
135.7706, 404.0182
136.2527, 414.7733
136.7348, 426.5144
137.2170, 438.9655
137.6991, 452.4100
138.1812, 465.7805
138.6633, 478.2772
139.1454, 489.9082
139.6275, 501.1580
140.1097, 511.6891
140.5918, 521.7843
141.0739, 532.9192
141.5560, 545.0630
142.0381, 558.0044
142.5202, 571.6820
143.0023, 585.7819
143.4845, 601.1436
143.9666, 618.1013
144.4487, 636.8542
144.9308, 654.6605
145.4129, 670.7922
145.8951, 686.8667
146.3772, 705.2085
146.8593, 726.4646
147.3414, 748.6672
147.8235, 771.2070
148.3056, 794.2867
148.7878, 817.7437
149.2699, 841.2626
149.7520, 865.6055
150.2341, 891.4421
150.7162, 920.9925
151.1983, 950.1975
151.6805, 977.9670
152.1626, 1001.769
152.6447, 1028.029
153.1268, 1058.607
153.6089, 1091.661
154.0910, 1123.877
154.5732, 1154.524
155.0553, 1185.065
155.5374, 1215.539
156.0195, 1244.960
156.5016, 1276.195
156.9837, 1310.295
157.4659, 1346.283
157.9480, 1382.278
158.4301, 1418.084
158.9122, 1453.418
159.3943, 1487.629
159.8764, 1519.821
160.3586, 1552.260
160.8407, 1586.157
161.3228, 1620.845
161.8049, 1654.474
162.2870, 1686.888
162.7691, 1717.775
163.2513, 1746.982
163.7334, 1774.901
164.2155, 1800.580
164.6976, 1823.402
165.1797, 1843.572
165.6618, 1861.980
166.1440, 1879.708
166.6261, 1895.370
167.1082, 1907.713
167.5903, 1915.580
168.0724, 1920.932
168.5545, 1925.665
169.0367, 1929.314
169.5188, 1929.190
170.0009, 1922.606
170.4830, 1911.825
170.9651, 1899.386
171.4472, 1887.026
171.9293, 1872.515
172.4115, 1853.684
172.8936, 1830.750
173.3757, 1805.509
173.8578, 1778.461
174.3399, 1750.334
174.8220, 1721.949
175.3042, 1693.700
175.7863, 1665.359
176.2684, 1635.706
176.7505, 1604.723
177.2326, 1574.389
177.7147, 1546.764
178.1969, 1521.112
178.6790, 1496.495
179.1611, 1472.588
179.6432, 1449.371
180.1253, 1427.481
180.6074, 1407.306
181.0896, 1386.824
181.5717, 1362.965
182.0538, 1337.076
182.5359, 1312.528
183.0180, 1291.795
183.5001, 1273.593
183.9823, 1255.838
184.4644, 1238.712
184.9465, 1221.702
185.4286, 1204.515
185.9107, 1187.064
186.3928, 1169.648
186.8750, 1151.753
187.3571, 1133.991
187.8392, 1118.168
188.3213, 1104.654
188.8034, 1092.112
189.2855, 1079.711
189.7677, 1067.373
190.2498, 1053.558
190.7319, 1036.939
191.2140, 1018.077
191.6961, 999.9492
192.1782, 982.7941
192.6604, 965.9858
193.1425, 948.5956
193.6246, 930.7045
194.1067, 913.5753
194.5888, 898.8934
195.0709, 886.3693
195.5531, 871.2861
196.0352, 853.0681
196.5173, 832.9328
196.9994, 812.4877
197.4815, 791.6953
197.9636, 771.0289
198.4458, 750.9409
198.9279, 731.4284
199.4100, 710.0209
199.8921, 685.9415
200.3742, 660.8361
200.8563, 638.0938
201.3385, 617.8845
201.8206, 597.7391
202.3027, 576.3105
202.7848, 553.3928
203.2669, 530.7807
203.7490, 508.4785
204.2311, 486.3680
204.7133, 464.1090
205.1954, 441.5962
205.6775, 419.4282
206.1596, 397.7647
206.6417, 376.4449
207.1238, 356.4356
207.6060, 338.0421
208.0881, 320.5331
208.5702, 302.0922
209.0523, 282.2369
209.5344, 262.9108
210.0165, 245.1043
210.4987, 228.9427
210.9808, 213.3672
211.4629, 198.3922
211.9450, 183.9775
212.4271, 170.1232
212.9092, 156.7012
213.3914, 144.1405
213.8735, 132.7202
214.3556, 122.7798
214.8377, 113.0385
215.3198, 103.5418
215.8019, 94.24390
216.2841, 85.31946
216.7662, 76.82281
217.2483, 68.48151
217.7304, 59.93561
218.2125, 50.74524
218.6946, 43.05981
219.1768, 37.18567
219.6589, 32.74725
220.1410, 28.67676
220.6231, 25.23694
221.1052, 21.66266
221.5873, 17.38989
222.0695, 11.83948
222.5516, 7.375793
223.0337, 4.388123
223.5158, 2.359436
223.9979, 0.1245120
224.4800, 3.276001
224.9622, 6.496277
225.4443, 9.643433
225.9264, 13.23102
226.4085, 15.39508
226.8906, 15.43152
227.3727, 14.32629
227.8549, 14.57220
228.3370, 17.17505
228.8191, 19.46741
229.3012, 20.20685
229.7833, 18.50488
230.2654, 17.61963
230.7476, 18.01477
231.2297, 19.04993
231.7118, 19.25476
232.1939, 18.26099
232.6760, 17.03253
233.1581, 15.99377
233.6402, 15.45117
234.1224, 14.26538
234.6045, 12.18799
235.0866, 9.551514
235.5687, 7.135498
236.0508, 5.296204
236.5329, 3.102234
237.0151, 0.2059330
237.4972, 3.527527
237.9793, 7.599243
238.4614, 12.51514
238.9435, 17.56824
239.4256, 21.31714
239.9078, 22.85645
240.3899, 24.47852
240.8720, 26.85693
241.3541, 29.91156
241.8362, 34.11597
242.3183, 40.24097
242.8005, 47.16193
243.2826, 52.79144
243.7647, 55.76819
244.2468, 59.63220
244.7289, 65.71466
245.2110, 74.66199
245.6932, 83.17944
246.1753, 91.07086
246.6574, 98.65735
247.1395, 106.4756
247.6216, 114.5792
248.1037, 122.6326
248.5859, 130.3029
249.0680, 137.1633
249.5501, 145.6650
250.0322, 156.6974
250.5143, 168.6570
250.9964, 179.2438
251.4786, 187.4120
251.9607, 196.1639
252.4428, 206.6335
252.9249, 219.0206
253.4070, 230.5005
253.8891, 240.3805
254.3713, 250.0070
254.8534, 261.1064
255.3355, 274.2531
255.8176, 287.5408
256.2997, 300.7784
256.7818, 313.8746
257.2639, 326.4325
257.7461, 338.0179
258.2282, 349.6068
258.7103, 362.0493
259.1924, 375.5101
259.6745, 389.7313
260.1566, 404.5189
260.6388, 420.0385
261.1209, 435.4678
261.6030, 450.7692
262.0851, 466.2457
262.5672, 482.0375
263.0493, 498.4666
263.5315, 514.7689
264.0136, 530.7053
264.4957, 546.3038
264.9778, 562.5638
265.4599, 579.5228
265.9420, 596.8839
266.4242, 614.1150
266.9063, 631.2375
267.3884, 648.7458
267.8705, 666.8101
268.3526, 685.3040
268.8347, 703.9334
269.3169, 722.4374
269.7990, 741.2662
270.2811, 761.1676
270.7632, 782.3868
271.2453, 802.8765
271.7274, 822.4913
272.2096, 841.1491
272.6917, 859.2297
273.1738, 876.6522
273.6559, 894.3148
274.1380, 913.1310
274.6201, 933.6750
275.1023, 952.7141
275.5844, 969.7950
276.0665, 985.3612
276.5486, 1001.253
277.0307, 1017.709
277.5128, 1033.287
277.9950, 1047.200
278.4771, 1059.393
278.9592, 1070.860
279.4413, 1081.926
279.9234, 1092.074
280.4055, 1100.427
280.8877, 1107.100
281.3698, 1111.620
281.8519, 1113.808
282.3340, 1113.595
282.8161, 1110.620
283.2982, 1104.810
283.7804, 1096.351
284.2625, 1085.768
284.7446, 1073.117
285.2267, 1058.233
285.7088, 1040.684
286.1909, 1020.540
286.6731, 999.1371
287.1552, 976.6219
287.6373, 952.6593
288.1194, 926.2216
288.6015, 897.3318
289.0836, 869.1556
289.5658, 843.7480
290.0479, 819.8419
290.5300, 791.8290
291.0121, 759.5833
291.4942, 726.7663
291.9763, 696.9889
292.4585, 670.1799
292.9406, 644.0388
293.4227, 618.3867
293.9048, 592.9718
294.3869, 567.3092
294.8690, 541.3015
295.3512, 516.0581
295.8333, 491.8780
296.3154, 468.9573
296.7975, 447.0876
297.2796, 426.7597
297.7617, 407.1307
298.2439, 386.5362
298.7260, 365.3750
299.2081, 345.2307
299.6902, 327.6613
300.1723, 312.0540
300.6544, 296.0530
301.1366, 279.1793
301.6187, 262.7338
302.1008, 248.8497
302.5829, 237.0534
303.0650, 224.9855
303.5471, 210.2263
304.0293, 194.8683
304.5114, 182.4108
304.9935, 173.4428
305.4756, 165.2485
305.9577, 154.8008
306.4398, 143.0703
306.9220, 132.2001
307.4041, 123.4023
307.8862, 115.7802
308.3683, 108.0441
308.8504, 100.1773
309.3326, 92.91901
309.8147, 87.27795
310.2968, 82.62561
310.7789, 77.94098
311.2610, 73.16559
311.7431, 68.02332
312.2252, 61.85205
312.7073, 54.78278
313.1895, 48.45355
313.6716, 44.26404
314.1537, 41.10797
314.6358, 37.90363
315.1179, 33.96631
315.6000, 30.28778
316.0822, 27.57910
316.5643, 25.63629
317.0464, 23.61407
317.5285, 20.88165
318.0106, 18.08527
318.4927, 15.69470
318.9749, 13.84833
319.4570, 12.26038
319.9391, 10.88562
320.4212, 9.693237
320.9033, 8.565186
321.3854, 7.568298
321.8676, 6.539368
322.3497, 5.331116
322.8318, 3.758362
323.3139, 2.497742
323.7960, 1.980133
324.2781, 1.798920
324.7603, 1.346466
325.2424, 0.2636110
325.7245, 0.8511350
326.2066, 1.827545
326.6887, 2.636261
327.1708, 3.391876
327.6530, 4.562531
328.1351, 5.455353
328.6172, 5.459534
329.0993, 3.533569
329.5814, 1.825287
330.0635, 0.5607910
330.5457, 0.2647090
331.0278, 0.7243960
331.5099, 0.3757930
331.9920, 1.5747000E-02
332.4741, 0.2035220
332.9562, 1.492798
333.4384, 2.367981
333.9205, 2.645294
334.4026, 2.432953
334.8847, 2.040802
335.3668, 1.065643
335.8489, 0.4866330
336.3311, 0.9602970
336.8132, 3.216797
337.2953, 4.267792
337.7774, 3.512604
338.2595, 2.013214
338.7416, 2.024048
339.2238, 4.222778
339.7059, 5.872070
340.1880, 5.595032
340.6701, 3.283783
341.1522, 2.536804
341.6343, 3.785980
342.1165, 5.648315
342.5986, 6.556763
343.0807, 6.455414
343.5628, 5.944763
344.0449, 5.062653
344.5270, 3.915833
345.0092, 2.762482
345.4913, 1.541931
345.9734, 0.6316830
346.4555, 0.5421450
346.9376, 1.165222
347.4197, 1.521606
347.9019, 1.444122
348.3840, 0.9927370
348.8661, 2.1060000E-03
349.3482, 1.481995
349.8303, 2.683441
350.3124, 3.041412
350.7946, 2.775330
351.2767, 2.498352
351.7588, 2.315765
352.2409, 1.963379
352.7230, 0.9379880
353.2051, 0.5411990
353.6873, 1.832214
354.1694, 2.466522
354.6515, 2.811707
355.1336, 3.411438
355.6157, 4.289398
356.0978, 5.032715
356.5800, 5.211304
357.0621, 5.073151
357.5442, 4.982208
358.0263, 5.044708
358.5084, 5.220917
358.9905, 5.312256
359.4727, 5.416626
359.9548, 6.053802
360.4369, 8.448120
360.9190, 11.02451
361.4011, 12.23679
361.8832, 10.67990
362.3654, 9.763855
362.8475, 11.56570
363.3296, 15.19830
363.8117, 18.62521
364.2938, 21.30820
364.7759, 23.31989
365.2581, 24.47873
365.7402, 24.43613
366.2223, 24.61853
366.7044, 25.44992
367.1865, 26.83832
367.6686, 28.49640
368.1508, 30.38541
368.6329, 32.30380
369.1150, 34.21359
369.5971, 36.15744
370.0792, 38.25238
370.5613, 40.71094
371.0435, 43.04315
371.5256, 45.00421
372.0077, 46.25745
372.4898, 47.88318
372.9719, 49.88733
373.4540, 52.17252
373.9361, 54.71634
374.4182, 57.84320
374.9004, 60.64417
375.3825, 62.72238
375.8646, 63.96387
376.3467, 65.02875
376.8288, 65.82809
377.3109, 66.50311
377.7931, 67.18671
378.2752, 67.79959
378.7573, 68.66721
379.2394, 69.97522
379.7215, 71.65561
380.2036, 73.28464
380.6858, 74.89108
381.1679, 76.19519
381.6500, 76.88379
382.1321, 76.99484
382.6142, 76.87430
383.0963, 76.48291
383.5785, 75.94638
384.0606, 75.55780
384.5427, 75.32544
385.0248, 75.05786
385.5069, 74.78613
385.9890, 74.37790
386.4712, 73.41367
386.9533, 71.88226
387.4354, 70.39700
387.9175, 69.65717
388.3996, 69.45657
388.8817, 69.36398
389.3639, 69.16418
389.8460, 68.94824
390.3281, 68.78171
390.8102, 68.71274
391.2923, 68.84238
391.7744, 69.19687
392.2566, 69.78836
392.7387, 70.68765
393.2208, 72.27151
393.7029, 73.58652
394.1850, 73.94565
394.6671, 73.70798
395.1493, 73.71436
395.6314, 74.52567
396.1135, 75.43851
396.5956, 76.12717
397.0777, 76.55228
397.5598, 76.92804
398.0420, 76.82230
398.5241, 76.81897
399.0062, 77.62860
399.4883, 80.32205
399.9704, 82.87329
400.4525, 84.68347
400.9347, 85.77402
401.4168, 87.22324
401.8989, 89.48047
402.3810, 91.67139
402.8631, 93.28177
403.3452, 94.18500
403.8274, 94.73776
404.3095, 95.04611
404.7916, 95.03290
405.2737, 94.35809
405.7558, 92.76260
406.2379, 91.10144
406.7201, 89.78964
407.2022, 88.83835
407.6843, 87.03329
408.1664, 84.32413
408.6485, 81.15094
409.1306, 78.03613
409.6128, 74.96603
410.0949, 71.58090
410.5770, 67.79111
411.0591, 63.71191
411.5412, 59.39737
412.0233, 54.79205
412.5055, 50.56577
412.9876, 47.48560
413.4697, 45.13623
413.9518, 42.50201
414.4339, 39.49902
414.9160, 36.11124
415.3982, 31.82358
415.8803, 27.14468
416.3624, 23.13876
416.8445, 21.03546
417.3266, 19.39166
417.8087, 16.54486
418.2909, 12.59497
418.7730, 8.942688
419.2551, 6.815063
419.7372, 5.247559
420.2193, 3.292389
420.7014, 0.2619020
421.1836, 2.444672
421.6657, 4.258423
422.1478, 5.303558
422.6299, 5.903534
423.1120, 5.265564
423.5941, 4.933899
424.0763, 5.839935
424.5584, 8.514130
425.0405, 10.41144
425.5226, 10.71765
426.0047, 10.36850
426.4868, 10.27295
426.9690, 10.87903
427.4511, 11.13278
427.9332, 10.62564
428.4153, 9.584656
428.8974, 9.375885
429.3795, 10.57953
429.8617, 11.70529
430.3438, 11.94315
430.8259, 11.09052
431.3080, 10.11401
431.7901, 8.934875
432.2722, 7.756073
432.7544, 6.925934
433.2365, 6.493988
433.7186, 5.936676
434.2007, 5.174103
434.6828, 4.139557
435.1649, 2.437439
435.6470, 3.6865000E-02
436.1292, 2.457428
436.6113, 4.391876
437.0934, 5.997314
437.5755, 7.999084
438.0576, 10.53265
438.5397, 13.44171
439.0219, 16.90820
439.5040, 20.67303
439.9861, 23.89517
440.4682, 25.19897
440.9503, 26.38583
441.4324, 29.55289
441.9146, 34.76028
442.3967, 39.86722
442.8788, 43.09836
443.3609, 45.82608
443.8430, 49.38165
444.3251, 54.75378
444.8073, 60.24234
445.2894, 65.19485
445.7715, 69.81079
446.2536, 74.60626
446.7357, 79.45114
447.2178, 84.73022
447.7000, 90.59647
448.1821, 97.14145
448.6642, 104.0357
449.1463, 111.7413
449.6284, 119.4550
450.1105, 126.3528
450.5927, 130.8763
451.0748, 137.5061
451.5569, 147.6518
452.0390, 160.2602
452.5211, 171.2933
453.0032, 179.8694
453.4854, 189.0202
453.9675, 200.4329
454.4496, 214.3074
454.9317, 227.8082
455.4138, 240.7280
455.8959, 253.6427
456.3781, 267.4250
456.8602, 282.0150
457.3423, 296.1449
457.8244, 308.4659
458.3065, 320.8508
458.7886, 336.9579
459.2708, 356.7025
459.7529, 377.2378
460.2350, 397.2198
460.7171, 416.9708
461.1992, 437.3554
461.6813, 458.3912
462.1635, 479.7643
462.6456, 501.7367
463.1277, 523.9601
463.6098, 546.0504
464.0919, 567.2202
464.5740, 588.7035
465.0562, 611.6474
465.5383, 635.7219
466.0204, 659.3441
466.5025, 681.9607
466.9846, 704.4069
467.4667, 727.0418
467.9489, 750.4842
468.4310, 773.1150
468.9131, 794.7046
469.3952, 815.3594
469.8773, 835.1848
470.3594, 854.9070
470.8416, 873.0580
471.3237, 889.7589
471.8058, 904.7367
472.2879, 916.5612
472.7700, 924.7969
473.2521, 930.9842
473.7343, 936.0629
474.2164, 940.0853
474.6985, 942.3904
475.1806, 943.2542
475.6627, 941.6133
476.1448, 935.5747
476.6270, 925.3795
477.1091, 913.0468
477.5912, 899.0260
478.0733, 883.4617
478.5554, 866.2734
479.0375, 847.4550
479.5197, 828.0527
480.0018, 809.0375
480.4839, 789.6115
480.9660, 768.5107
481.4481, 745.1107
481.9302, 721.5832
482.4124, 698.5319
482.8945, 676.4163
483.3766, 655.8783
483.8587, 637.6279
484.3408, 620.3480
484.8229, 602.8696
485.3051, 585.4556
485.7872, 570.8139
486.2693, 560.4585
486.7514, 552.0432
487.2335, 544.2935
487.7156, 535.9929
488.1978, 530.8185
488.6799, 529.1944
489.1620, 530.4870
489.6441, 533.6639
490.1262, 538.0714
490.6083, 546.2233
491.0905, 559.3581
491.5726, 576.4497
492.0547, 592.9539
492.5368, 608.3670
493.0189, 625.3735
493.5010, 645.5084
493.9832, 668.4826
494.4653, 694.3438
494.9474, 723.0806
495.4295, 754.1780
495.9116, 787.3206
496.3937, 822.5219
496.8758, 858.5811
497.3579, 894.1457
497.8401, 931.9670
498.3222, 976.0544
498.8043, 1025.505
499.2864, 1077.572
499.7685, 1130.506
500.2506, 1185.668
500.7328, 1243.393
501.2149, 1303.431
501.6970, 1366.491
502.1791, 1432.624
502.6612, 1501.428
503.1433, 1572.527
503.6255, 1646.760
504.1076, 1721.878
504.5897, 1798.783
505.0718, 1876.798
505.5539, 1954.856
506.0360, 2035.106
506.5182, 2113.964
507.0003, 2190.177
507.4824, 2263.992
507.9645, 2333.356
508.4466, 2398.703
508.9287, 2457.608
509.4109, 2509.219
509.8930, 2553.492
510.3751, 2584.975
510.8572, 2603.028
511.3393, 2608.162
511.8214, 2602.092
512.3036, 2584.515
512.7857, 2554.006
513.2678, 2508.412
513.7499, 2450.125
514.2321, 2381.041
514.7142, 2301.971
515.1963, 2215.235
515.6784, 2119.371
516.1605, 2018.384
516.6426, 1915.737
517.1248, 1811.540
517.6069, 1707.394
518.0890, 1602.355
518.5711, 1497.799
519.0532, 1397.146
519.5353, 1298.632
520.0175, 1205.618
520.4996, 1118.981
520.9817, 1038.998
521.4638, 963.6453
521.9459, 893.0204
522.4280, 826.5848
522.9102, 764.9139
523.3923, 707.7691
523.8744, 653.8260
524.3565, 602.4661
524.8386, 554.7666
525.3207, 512.4904
525.8029, 475.9595
526.2849, 441.2792
526.7670, 407.8866
527.2491, 375.9994
527.7313, 346.6178
528.2134, 319.6375
528.6955, 295.1604
529.1776, 274.5516
529.6597, 256.1342
530.1418, 237.6352
530.6240, 219.2697
531.1061, 201.8060
531.5882, 186.1799
532.0703, 171.8892
532.5524, 158.4450
533.0345, 145.8256
533.5167, 133.9455
533.9988, 122.8832
534.4809, 112.5317
534.9630, 102.7971
535.4451, 93.38684
535.9272, 84.94012
536.4094, 77.68463
536.8915, 71.58902
537.3736, 65.72360
537.8557, 60.03345
538.3378, 54.57147
538.8199, 49.27109
539.3021, 44.03693
539.7842, 39.37616
540.2663, 35.24158
540.7484, 31.56198
541.2305, 28.54404
541.7126, 26.08563
542.1948, 23.38675
542.6769, 20.12402
543.1590, 16.64651
543.6411, 13.38571
544.1232, 10.39520
544.6053, 7.866821
545.0875, 5.814331
545.5696, 4.374054
546.0517, 3.776031
546.5338, 3.976837
547.0159, 4.441803
547.4980, 5.398132
547.9802, 6.216797
548.4623, 6.328461
548.9444, 4.872467
549.4265, 4.157745
549.9086, 5.108765
550.3907, 6.809509
550.8729, 7.905670
551.3550, 7.863220
551.8371, 8.015350
552.3192, 8.661743
552.8013, 9.723511
553.2834, 10.65906
553.7656, 11.28165
554.2477, 12.34195
554.7298, 14.68063
555.2119, 18.12393
555.6940, 20.18716
556.1761, 20.70807
556.6583, 21.17279
557.1404, 23.40750
557.6225, 26.72430
558.1046, 29.31940
558.5867, 30.46915
559.0688, 31.68658
559.5510, 34.66989
560.0331, 38.70721
560.5152, 42.39297
560.9973, 44.53619
561.4794, 46.81287
561.9615, 50.31796
562.4437, 54.88290
562.9258, 58.87888
563.4079, 61.58368
563.8900, 63.98346
564.3721, 66.58316
564.8542, 69.62915
565.3364, 72.00989
565.8185, 73.19623
566.3006, 74.30209
566.7827, 76.86990
567.2648, 81.38229
567.7469, 84.14929
568.2291, 84.26532
568.7112, 82.87033
569.1933, 81.96536
569.6754, 81.55444
570.1575, 81.57227
570.6396, 82.92245
571.1218, 84.21985
571.6039, 82.78943
572.0860, 78.91864
572.5681, 74.70245
573.0502, 71.15976
573.5323, 68.18491
574.0145, 65.86157
574.4966, 64.50269
574.9787, 62.34970
575.4608, 57.78180
575.9429, 52.53967
576.4250, 48.38425
576.9072, 47.58398
577.3893, 45.27484
577.8714, 40.14383
578.3535, 33.56760
578.8356, 28.92450
579.3177, 26.86044
579.7999, 25.17850
580.2820, 23.26852
580.7641, 21.17203
581.2462, 19.23099
581.7283, 17.52213
582.2104, 15.29486
582.6926, 11.22421
583.1747, 6.224884
583.6568, 3.122955
584.1389, 2.178833
584.6210, 2.159393
585.1031, 2.612274
585.5853, 3.052856
586.0674, 2.704620
586.5495, 0.8489990
587.0316, 0.9778440
587.5137, 1.739105
587.9958, 1.975586
588.4780, 2.744293
588.9601, 5.174713
589.4422, 7.272430
589.9243, 8.614716
590.4064, 9.213806
590.8885, 8.932312
591.3707, 7.161316
591.8528, 5.474274
592.3349, 4.656921
592.8170, 4.785187
593.2991, 4.967834
593.7813, 5.199707
594.2634, 5.522949
594.7455, 6.080505
595.2276, 6.792114
595.7097, 7.331757
596.1918, 7.733429
596.6740, 7.672882
597.1561, 6.117218
597.6382, 3.832458
598.1203, 2.466309
598.6024, 3.646698
599.0845, 5.081909
599.5667, 5.568787
600.0488, 5.217346
600.5309, 4.417664
601.0130, 2.240662
601.4951, 0.5902400
601.9772, 0.6041870
602.4594, 2.539948
602.9415, 3.621979
603.4236, 3.568146
603.9057, 3.018036
604.3878, 2.309082
604.8699, 1.384766
605.3521, 0.6463930
605.8342, 7.1990997E-02
606.3163, 0.2186580
606.7984, 0.1847530
607.2805, 1.104919
607.7626, 1.579803
608.2448, 1.259155
608.7269, 0.4999080
609.2090, 0.4057920
609.6911, 1.318024
610.1732, 2.021179
610.6553, 1.904144
611.1375, 2.000824
611.6196, 3.257874
612.1017, 5.544525
612.5838, 7.390350
613.0659, 8.388000
613.5480, 8.847870
614.0302, 8.619629
614.5123, 7.261627
614.9944, 7.102692
615.4765, 9.042725
615.9586, 11.14355
616.4407, 11.25095
616.9229, 8.833893
617.4050, 8.175262
617.8871, 10.08643
618.3692, 13.08347
618.8513, 15.05386
619.3334, 16.15521
619.8156, 17.04584
620.2977, 17.86420
620.7798, 18.56650
621.2619, 19.11859
621.7440, 19.50125
622.2261, 19.77478
622.7083, 19.72311
623.1904, 19.89609
623.6725, 20.56058
624.1546, 21.62881
624.6367, 22.56754
625.1188, 23.48871
625.6010, 24.17731
626.0831, 24.41296
626.5652, 23.91095
627.0473, 24.07550
627.5294, 24.94827
628.0115, 26.38879
628.4937, 28.68457
628.9758, 31.92361
629.4579, 33.65643
629.9400, 33.06198
630.4221, 31.50949
630.9042, 30.99249
631.3864, 31.32034
631.8685, 31.86261
632.3506, 32.42163
632.8327, 32.98297
633.3148, 33.62701
633.7969, 34.31824
634.2791, 34.84058
634.7612, 34.90521
635.2433, 34.88272
635.7254, 34.91354
636.2075, 35.01389
636.6896, 35.26260
637.1718, 35.87222
637.6539, 36.37531
638.1360, 36.48389
638.6181, 36.10989
639.1002, 36.00165
639.5823, 36.21829
640.0645, 36.53107
640.5466, 36.95312
641.0287, 37.35083
641.5108, 36.83551
641.9929, 35.10733
642.4750, 33.09216
642.9572, 31.45038
643.4393, 30.35046
643.9214, 30.12756
644.4035, 31.73151
644.8856, 33.23621
645.3677, 33.50397
645.8499, 32.93594
646.3320, 32.44315
646.8141, 32.42892
647.2962, 32.11246
647.7783, 31.36438
648.2604, 30.23648
648.7426, 28.67587
649.2247, 26.47998
649.7068, 24.67001
650.1888, 23.84659
650.6710, 23.87122
651.1531, 23.47083
651.6352, 22.62778
652.1173, 21.58493
652.5994, 20.26587
653.0815, 18.92917
653.5637, 18.21707
654.0458, 18.31351
654.5279, 18.44940
655.0100, 18.47754
655.4921, 18.21674
655.9742, 17.28009
656.4564, 14.12918
656.9385, 12.00027
657.4206, 12.74643
657.9027, 14.72934
658.3848, 15.16403
658.8669, 13.30972
659.3491, 11.51895
659.8312, 9.991943
660.3133, 8.627991
660.7954, 7.550781
661.2775, 6.842621
661.7596, 6.388641
662.2418, 6.164215
662.7239, 6.159973
663.2060, 6.575836
663.6881, 7.286835
664.1702, 7.452179
664.6523, 5.981567
665.1345, 4.004486
665.6166, 2.421539
666.0987, 1.359558
666.5808, 0.9642030
667.0629, 1.999023
667.5450, 3.228333
668.0272, 3.786713
668.5093, 3.421844
668.9914, 2.858795
669.4735, 2.026855
669.9556, 1.222839
670.4377, 0.5644530
670.9199, 5.1879999E-03
671.4020, 0.1779480
671.8841, 1.455475
672.3662, 2.804504
672.8483, 2.359436
673.3304, 0.7293700
673.8126, 0.2881160
674.2947, 0.2570500
674.7768, 1.200653
675.2589, 1.838684
675.7410, 2.157867
676.2231, 2.045013
676.7053, 0.8759160
677.1874, 0.1404720
677.6695, 0.5917660
678.1516, 0.4962770
678.6337, 9.8907001E-02
679.1158, 1.105743
679.5980, 1.727325
680.0801, 0.8947750
680.5622, 1.210449
681.0443, 1.939911
681.5264, 1.165985
682.0085, 0.1357730
682.4907, 0.2668150
682.9728, 0.2357480
683.4549, 9.1766000E-02
683.9370, 0.1465150
684.4191, 0.1199340
684.9012, 1.184967
685.3834, 2.503876
685.8655, 2.297668
686.3476, 0.6127010
686.8297, 2.594360
687.3118, 1.886017
687.7939, 0.2385250
688.2761, 0.4960020
688.7582, 0.2572330
689.2403, 0.6543580
689.7224, 0.3947450
690.2045, 6.8816997E-02
690.6866, 0.1638790
691.1688, 1.079559
691.6509, 1.514404
692.1330, 1.015900
692.6151, 0.1398930
693.0972, 0.2593080
693.5793, 0.3209530
694.0615, 0.4456790
694.5436, 0.3782350
695.0257, 0.8408200
695.5078, 3.132202
695.9899, 6.561371
696.4720, 8.311523
696.9542, 5.827393
697.4363, 3.511475
697.9184, 2.812958
698.4005, 3.644531
698.8826, 4.617157
699.3647, 5.884338
699.8469, 6.844025
700.3290, 6.832336
700.8111, 6.074493
701.2932, 6.430939
701.7753, 7.915039
702.2574, 9.382202
702.7396, 9.934570
703.2217, 9.893341
703.7038, 9.554871
704.1859, 8.907776
704.6680, 8.469543
705.1501, 8.667389
705.6323, 9.092743
706.1144, 9.367950
706.5965, 8.915955
707.0786, 9.409027
707.5607, 11.76620
708.0428, 14.20844
708.5250, 14.40439
709.0071, 11.87430
709.4892, 10.56366
709.9713, 11.15442
710.4534, 12.60196
710.9355, 13.37363
711.4177, 13.69714
711.8998, 14.37283
712.3819, 15.97726
712.8640, 17.48987
713.3461, 17.70694
713.8282, 17.23141
714.3104, 17.17731
714.7925, 18.47049
715.2746, 19.60922
715.7567, 20.09610
716.2388, 20.10925
716.7209, 20.12708
717.2031, 20.03812
717.6852, 20.25067
718.1673, 21.02780
718.6494, 22.16656
719.1315, 22.99564
719.6136, 23.50729
720.0958, 23.60141
720.5779, 22.65607
721.0600, 21.54514
721.5421, 21.64536
722.0242, 22.82925
722.5063, 24.06705
722.9885, 25.26666
723.4706, 25.94730
723.9527, 25.59421
724.4348, 24.03839
724.9169, 22.97101
725.3990, 22.44611
725.8812, 22.38773
726.3633, 22.94128
726.8454, 24.20633
727.3275, 24.84824
727.8096, 24.81415
728.2917, 24.37494
728.7739, 23.43231
729.2560, 22.36060
729.7381, 22.17554
730.2202, 23.03821
730.7023, 23.90292
731.1844, 23.96765
731.6666, 23.60071
732.1487, 23.23206
732.6308, 22.72421
733.1129, 22.65634
733.5950, 23.63300
734.0771, 24.75357
734.5593, 25.02875
735.0414, 23.85852
735.5235, 23.84491
736.0056, 25.62051
736.4877, 27.90643
736.9698, 28.89362
737.4520, 28.71582
737.9341, 28.16864
738.4162, 27.17966
738.8983, 26.30374
739.3804, 26.20755
739.8625, 26.67267
740.3447, 27.25772
740.8268, 28.03406
741.3089, 28.62103
741.7910, 28.50345
742.2731, 28.19461
742.7552, 28.88629
743.2374, 31.21207
743.7195, 33.03882
744.2016, 33.66315
744.6837, 33.54968
745.1658, 34.41656
745.6479, 36.26285
746.1301, 37.76907
746.6122, 38.35767
747.0943, 38.37247
747.5764, 37.92609
748.0585, 37.28223
748.5406, 37.24216
749.0228, 38.30960
749.5049, 39.90039
749.9870, 42.18738
750.4691, 44.97208
750.9512, 46.87073
751.4333, 47.32788
751.9155, 47.68881
752.3976, 48.31693
752.8797, 49.21936
753.3618, 50.70160
753.8439, 52.78458
754.3260, 54.50089
754.8082, 54.89850
755.2903, 54.68536
755.7724, 55.06238
756.2545, 55.98727
756.7366, 56.96695
757.2188, 57.68384
757.7009, 58.41736
758.1830, 59.44128
758.6651, 60.80716
759.1472, 61.80933
759.6293, 61.84818
760.1115, 62.29385
760.5936, 63.98315
761.0757, 66.92285
761.5578, 69.48758
762.0399, 71.69312
762.5220, 73.24472
763.0042, 73.13818
763.4863, 72.44531
763.9684, 73.76773
764.4505, 77.27542
764.9326, 80.07895
765.4147, 79.29095
765.8969, 77.82883
766.3790, 78.01935
766.8611, 80.69321
767.3432, 82.87027
767.8253, 84.01312
768.3074, 85.05331
768.7896, 86.89664
769.2717, 89.81281
769.7538, 90.73087
770.2359, 89.28986
770.7180, 87.62955
771.2001, 87.94687
771.6823, 89.53983
772.1644, 91.16455
772.6465, 92.71875
773.1285, 93.82086
773.6107, 93.56488
774.0928, 93.04166
774.5749, 93.34021
775.0570, 95.22720
775.5391, 96.59247
776.0212, 97.61655
776.5034, 97.81314
776.9855, 96.18631
777.4676, 92.43649
777.9497, 90.86661
778.4318, 92.08875
778.9139, 94.12323
779.3961, 94.91907
779.8782, 94.89536
780.3603, 94.94739
780.8424, 95.37640
781.3245, 95.49359
781.8066, 94.58267
782.2888, 93.27469
782.7709, 92.18304
783.2530, 91.01477
783.7351, 90.85916
784.2172, 92.49646
784.6993, 94.26633
785.1815, 93.98895
785.6636, 91.64218
786.1457, 90.05270
786.6278, 89.68628
787.1099, 89.81851
787.5920, 89.59821
788.0742, 89.25317
788.5563, 89.12772
789.0384, 89.48431
789.5205, 89.64072
790.0026, 89.04395
790.4847, 88.10312
790.9669, 87.24490
791.4490, 86.81290
791.9311, 86.12732
792.4132, 85.14896
792.8953, 83.97067
793.3774, 82.29794
793.8596, 80.21512
794.3417, 79.28152
794.8238, 80.03207
795.3059, 80.92972
795.7880, 80.00119
796.2701, 78.20819
796.7523, 77.02411
797.2344, 77.44791
797.7165, 77.41208
798.1986, 75.45236
798.6807, 72.97568
799.1628, 71.78741
799.6450, 72.82620
800.1271, 72.95609
800.6092, 71.85971
801.0913, 70.01913
801.5734, 67.68201
802.0555, 65.07681
802.5377, 63.75278
803.0198, 64.28555
803.5019, 65.08051
803.9840, 64.79208
804.4661, 63.72876
804.9482, 62.19418
805.4304, 59.82562
805.9125, 57.88519
806.3946, 56.88373
806.8767, 56.33163
807.3588, 55.82672
807.8409, 55.45059
808.3231, 54.76340
808.8052, 53.71637
809.2873, 52.34738
809.7694, 50.61954
810.2515, 48.58978
810.7336, 46.35242
811.2158, 43.81323
811.6979, 41.47565
812.1800, 39.81177
812.6621, 38.51193
813.1442, 37.21573
813.6263, 35.41870
814.1085, 34.29053
814.5906, 34.74335
815.0727, 35.08936
815.5548, 33.08423
816.0369, 28.51273
816.5190, 25.49518
817.0012, 24.61984
817.4833, 24.44525
817.9654, 23.56516
818.4475, 22.16714
818.9296, 20.55341
819.4117, 18.72519
819.8939, 16.91000
820.3760, 15.21222
820.8581, 13.59021
821.3402, 11.94379
821.8223, 9.899506
822.3044, 8.780487
822.7866, 9.037933
823.2687, 9.388000
823.7508, 8.300385
824.2329, 5.956055
824.7150, 3.858307
825.1971, 2.179779
825.6793, 1.251099
826.1614, 2.251862
826.6435, 3.713257
827.1256, 3.751343
827.6077, 1.435242
828.0898, 9.5702998E-02
828.5720, 2.094391
829.0541, 4.123840
829.5362, 3.864471
830.0183, 0.4529420
830.5004, 1.260529
830.9825, 1.014587
831.4647, 0.2585140
831.9468, 0.3444820
832.4289, 0.8118590
832.9110, 0.6269230
833.3931, 0.2598570
833.8752, 0.9930110
834.3574, 1.057526
834.8395, 0.8127140
835.3216, 0.4870000
835.8037, 9.5673002E-02
836.2858, 0.1464540
836.7679, 8.7738000E-02
837.2501, 0.1379700
837.7322, 0.6949460
838.2143, 1.696289
838.6964, 2.109589
839.1785, 1.914825
839.6606, 1.591553
840.1428, 1.475037
840.6249, 1.480347
841.1070, 1.685059
841.5891, 2.050934
842.0712, 1.929352
842.5533, 6.4879999E-02
843.0355, 1.261658
843.5176, 0.7427370
843.9997, 1.397156
844.4818, 1.721985
844.9639, 9.7351000E-02
845.4460, 1.636078
845.9282, 1.367035
846.4103, 5.5542000E-02
846.8924, 0.8961790
847.3745, 1.446594
847.8566, 1.385956
848.3387, 0.3710330
848.8209, 1.844055
849.3030, 1.631439
849.7851, 9.1399997E-02
850.2672, 0.6832280
850.7493, 0.3879090
851.2314, 0.1427310
851.7136, 0.9147340
852.1957, 1.622711
852.6778, 0.9198910
853.1599, 0.9421690
853.6420, 2.017242
854.1241, 1.081299
854.6063, 0.5669250
855.0884, 2.202576
855.5705, 3.567291
856.0526, 4.150391
856.5347, 2.766663
857.0168, 1.935547
857.4990, 2.247192
857.9811, 3.203796
858.4632, 3.967194
858.9453, 4.545532
859.4274, 4.634979
859.9095, 4.122925
860.3917, 3.262817
860.8738, 1.913666
861.3559, 0.5402830
861.8380, 8.2275003E-02
862.3201, 1.326660
862.8022, 2.473755
863.2844, 2.846985
863.7665, 2.769287
864.2486, 2.574371
864.7307, 2.073547
865.2128, 2.077515
865.6949, 2.766083
866.1771, 3.577271
866.6592, 3.953339
867.1413, 3.958984
867.6234, 3.702606
868.1055, 3.162598
868.5876, 2.659882
869.0698, 2.488281
869.5519, 2.398743
870.0340, 2.010040
870.5161, 0.9183350
870.9982, 1.132324
871.4803, 3.446381
871.9625, 5.617188
872.4446, 5.880981
872.9267, 4.472809
873.4088, 3.793884
873.8909, 3.837524
874.3730, 3.909546
874.8552, 3.340240
875.3373, 2.682617
875.8194, 2.525208
876.3015, 2.861664
876.7836, 3.037354
877.2657, 2.650452
877.7479, 2.364838
878.2300, 2.415619
878.7121, 2.767303
879.1942, 3.246918
879.6763, 3.855072
880.1584, 3.887970
880.6406, 2.336517
881.1227, 0.6895750
881.6048, 1.281342
882.0869, 3.373993
882.5690, 5.041534
883.0511, 5.576294
883.5333, 5.534485
884.0154, 4.661011
884.4975, 3.472198
884.9796, 3.114868
885.4617, 3.843964
885.9438, 3.633026
886.4260, 1.746307
886.9081, 0.3990780
887.3902, 0.5977480
887.8723, 0.5409550
888.3544, 1.741180
888.8365, 2.970367
889.3187, 3.590576
889.8008, 2.587769
890.2829, 1.234467
890.7650, 0.8819890
891.2471, 1.868408
891.7292, 3.066589
892.2114, 4.657990
892.6935, 5.906830
893.1756, 5.813721
893.6577, 4.873871
894.1398, 4.180725
894.6219, 3.816528
895.1041, 3.887146
895.5862, 5.135834
896.0683, 6.267761
896.5504, 6.203339
897.0325, 4.701599
897.5146, 3.937531
897.9967, 4.018005
898.4788, 4.492859
898.9609, 5.386780
899.4431, 6.472229
899.9252, 6.800049
900.4073, 6.547638
900.8894, 6.164581
901.3715, 5.678467
901.8536, 5.334839
902.3358, 5.522614
902.8179, 6.227936
903.3000, 6.926422
903.7821, 7.518799
904.2642, 8.031403
904.7463, 8.469025
905.2285, 8.791412
905.7106, 8.991608
906.1927, 9.162201
906.6748, 8.941254
907.1569, 7.954559
907.6390, 7.187744
908.1212, 8.052063
908.6033, 9.473328
909.0854, 9.906250
909.5675, 7.737305
910.0496, 6.665619
910.5317, 7.325195
911.0139, 8.296478
911.4960, 8.057312
911.9781, 6.877625
912.4602, 6.637451
912.9423, 7.410858
913.4244, 8.335022
913.9066, 9.117676
914.3887, 9.529297
914.8708, 9.087830
915.3529, 7.673187
915.8350, 6.923706
916.3171, 7.672516
916.7993, 8.292236
917.2814, 7.983551
917.7635, 6.929199
918.2456, 6.273621
918.7277, 6.016266
919.2098, 6.239258
919.6920, 7.244598
920.1741, 8.632263
920.6562, 10.50327
921.1383, 12.35175
921.6204, 12.83771
922.1025, 9.879486
922.5847, 7.761322
923.0668, 7.452240
923.5489, 8.037628
924.0310, 7.735107
924.5131, 6.595398
924.9952, 5.738434
925.4774, 5.319336
925.9595, 5.526733
926.4416, 7.572571
926.9237, 9.883575
927.4058, 10.30664
927.8879, 7.305695
928.3701, 5.391663
928.8522, 5.680023
929.3343, 6.575867
929.8164, 6.946167
930.2985, 6.783447
930.7806, 6.550598
931.2628, 6.248352
931.7449, 6.205170
932.2270, 7.111969
932.7091, 8.064606
933.1912, 8.045105
933.6733, 7.127563
934.1555, 6.383850
934.6376, 6.336517
935.1197, 6.064697
935.6018, 5.127808
936.0839, 3.912170
936.5660, 3.880219
937.0482, 4.916931
937.5303, 5.349274
938.0124, 4.231720
938.4945, 2.959961
938.9766, 2.967468
939.4587, 3.757935
939.9409, 4.468262
940.4230, 5.092621
940.9051, 5.139069
941.3872, 4.241302
941.8693, 3.235748
942.3514, 3.139252
942.8336, 3.834015
943.3157, 4.192230
943.7978, 4.099548
944.2799, 3.709412
944.7620, 2.931244
945.2441, 2.114655
945.7263, 1.605652
946.2084, 1.427063
946.6905, 1.130280
947.1726, 0.3957210
947.6547, 5.2276999E-02
948.1368, 0.1526790
948.6190, 0.8471980
949.1011, 1.676270
949.5832, 2.520721
950.0653, 2.660553
950.5474, 1.116943
951.0295, 0.5625610
951.5117, 1.363342
951.9938, 1.541321
952.4759, 1.534424
952.9580, 1.193481
953.4401, 1.081879
953.9222, 1.402374
954.4044, 1.696075
954.8865, 1.268280
955.3686, 0.3114930
955.8507, 0.5737300
956.3328, 1.351196
956.8149, 1.669373
957.2971, 0.7561340
957.7792, 0.3161930
958.2613, 0.5163570
958.7434, 0.3220520
959.2255, 0.1178890
959.7076, 2.411377
960.1898, 4.167755
960.6719, 3.942413
961.1540, 2.516144
961.6361, 1.735382
962.1182, 1.408783
962.6003, 0.8424070
963.0825, 0.7091670
963.5646, 2.085297
964.0467, 2.966888
964.5288, 3.297333
965.0109, 2.861816
965.4930, 1.333344
965.9752, 0.6507570
966.4573, 1.201172
966.9394, 2.027039
967.4215, 1.929962
967.9036, 1.303314
968.3857, 0.8043820
968.8679, 0.5458680
969.3500, 0.3145750
969.8321, 0.4429630
970.3142, 0.7045590
970.7963, 0.2588500
971.2784, 2.326569
971.7606, 4.015808
972.2427, 5.327881
972.7248, 5.591370
973.2069, 3.296112
973.6890, 0.7065430
974.1711, 1.037781
974.6533, 3.248352
975.1354, 4.914734
975.6175, 5.006775
976.0996, 4.812500
976.5817, 4.343140
977.0638, 3.860077
977.5460, 3.810272
978.0281, 4.134796
978.5102, 4.191071
978.9923, 3.851440
979.4744, 3.606995
979.9565, 4.188660
980.4387, 4.844818
980.9208, 4.791626
981.4029, 3.823914
981.8850, 3.161224
982.3671, 2.673523
982.8492, 2.904358
983.3314, 4.636902
983.8135, 7.012024
984.2956, 6.999756
984.7777, 5.121429
985.2598, 3.572662
985.7419, 3.583282
986.2241, 3.974762
986.7062, 4.385406
987.1883, 4.792175
987.6704, 5.111938
988.1525, 5.239746
988.6346, 5.690521
989.1168, 6.566742
989.5989, 7.540222
990.0810, 8.630310
990.5631, 9.401764
991.0452, 8.721283
991.5273, 6.458527
992.0095, 4.931671
992.4916, 5.854675
992.9737, 6.890106
993.4558, 6.823517
993.9379, 5.957275
994.4200, 6.267975
994.9022, 7.748993
995.3843, 8.753174
995.8664, 8.139923
996.3485, 7.466339
996.8306, 9.274780
997.3127, 12.02393
997.7949, 13.22272
998.2770, 10.07584
998.7591, 8.697540
999.2412, 9.984222
999.7233, 11.84985
1000.205, 12.01920
1000.688, 10.94513
1001.170, 11.10925
1001.652, 12.55872
1002.134, 13.85431
1002.616, 14.01804
1003.098, 13.68521
1003.580, 12.96323
1004.062, 12.02908
1004.544, 11.75290
1005.027, 12.17209
1005.509, 13.14471
1005.991, 15.01425
1006.473, 16.79938
1006.955, 16.50861
1007.437, 15.03644
1007.919, 14.14798
1008.401, 14.42026
1008.884, 14.86166
1009.366, 15.75687
1009.848, 16.30444
1010.330, 15.72110
1010.812, 13.97168
1011.294, 13.53299
1011.776, 14.39481
1012.258, 15.22260
1012.740, 14.71848
1013.223, 14.23434
1013.705, 15.51642
1014.187, 17.87054
1014.669, 18.88208
1015.151, 16.78021
1015.633, 15.94714
1016.115, 17.50296
1016.597, 19.80457
1017.080, 20.05869
1017.562, 18.78107
1018.044, 17.96548
1018.526, 18.09354
1019.008, 18.39127
1019.490, 17.97437
1019.972, 17.80637
1020.454, 18.81970
1020.936, 20.96255
1021.419, 22.12680
1021.901, 22.22873
1022.383, 21.91589
1022.865, 21.18365
1023.347, 20.57571
1023.829, 21.26984
1024.311, 22.57071
1024.793, 23.08435
1025.276, 21.61557
1025.758, 20.40939
1026.240, 19.44144
1026.722, 19.06281
1027.204, 19.94241
1027.686, 21.81021
1028.168, 23.01105
1028.650, 23.50464
1029.132, 23.73306
1029.615, 23.96216
1030.097, 24.03641
1030.579, 23.61099
1031.061, 22.87204
1031.543, 22.95004
1032.025, 24.31018
1032.507, 24.32571
1032.989, 21.89771
1033.471, 18.98264
1033.954, 18.55087
1034.436, 19.58682
1034.918, 20.54419
1035.400, 21.34607
1035.882, 21.07632
1036.364, 18.56552
1036.846, 16.05692
1037.328, 14.73233
1037.811, 14.48041
1038.293, 14.53052
1038.775, 14.80127
1039.257, 14.45703
1039.739, 12.03064
1040.221, 9.860931
1040.703, 10.19788
1041.185, 11.68271
1041.667, 11.55234
1042.150, 8.977478
1042.632, 7.010162
1043.114, 5.871826
1043.596, 5.389893
1044.078, 5.903198
1044.560, 6.720184
1045.042, 6.570038
1045.524, 5.398041
1046.006, 4.228546
1046.489, 3.086578
1046.971, 2.427155
1047.453, 2.513428
1047.935, 3.078186
1048.417, 3.435181
1048.899, 3.599670
1049.381, 3.806549
1049.863, 4.310303
1050.346, 4.233307
1050.828, 2.095428
1051.310, 0.4662170
1051.792, 1.757172
1052.274, 1.592407
1052.756, 0.8219600
1053.238, 0.7761230
1053.720, 1.945526
1054.203, 1.642029
1054.685, 0.6482240
1055.167, 0.2916870
1055.649, 0.3425600
1056.131, 0.1918030
1056.613, 0.9364930
1057.095, 1.460388
1057.577, 0.9669800
1058.059, 9.7290002E-02
1058.542, 0.4256290
1059.024, 0.6604310
1059.506, 1.025269
1059.988, 1.543945
1060.470, 1.965515
1060.952, 2.101776
1061.434, 2.106659
1061.916, 2.182648
1062.398, 2.218445
1062.881, 1.576050
1063.363, 4.2479999E-02
1063.845, 0.8458860
1064.327, 0.6921080
1064.809, 0.1903380
1065.291, 2.051392
1065.773, 4.102509
1066.255, 5.052826
1066.738, 4.175049
1067.220, 4.472107
1067.702, 6.864624
1068.184, 9.181580
1068.666, 10.29364
1069.148, 10.48288
1069.630, 10.49036
1070.112, 10.35425
1070.594, 10.20312
1071.077, 9.810455
1071.559, 9.809113
1072.041, 10.76089
1072.523, 12.03040
1073.005, 13.16388
1073.487, 14.22977
1073.969, 13.88354
1074.451, 12.03033
1074.933, 10.47461
1075.416, 10.75626
1075.898, 11.78830
1076.380, 12.80829
1076.862, 13.77377
1077.344, 14.64340
1077.826, 15.43204
1078.308, 16.09662
1078.790, 16.57471
1079.273, 17.06192
1079.755, 18.07745
1080.237, 19.17780
1080.719, 19.25314
1081.201, 18.02838
1081.683, 17.80737
1082.165, 20.71780
1082.647, 23.15948
1083.129, 23.66330
1083.612, 22.90405
1084.094, 23.15237
1084.576, 24.22678
1085.058, 25.16739
1085.540, 25.65454
1086.022, 25.94531
1086.504, 25.95230
1086.986, 26.02539
1087.469, 26.59390
1087.951, 27.78186
1088.433, 28.14401
1088.915, 27.61307
1089.397, 27.28094
1089.879, 28.05676
1090.361, 29.18225
1090.843, 30.02054
1091.325, 30.57990
1091.807, 30.85822
1092.290, 30.74817
1092.772, 30.54691
1093.254, 30.18698
1093.736, 29.96854
1094.218, 30.07990
1094.700, 30.58948
1095.182, 31.97638
1095.664, 34.08755
1096.147, 35.57172
1096.629, 35.48740
1097.111, 35.13190
1097.593, 34.70285
1098.075, 34.37781
1098.557, 34.40182
1099.039, 34.81140
1099.521, 35.96097
1100.004, 37.96494
1100.486, 40.04050
1100.968, 41.98627
1101.450, 43.48456
1101.932, 44.15231
1102.414, 44.13144
1102.896, 44.32898
1103.378, 44.76965
1103.860, 44.79837
1104.343, 43.92462
1104.825, 43.17511
1105.307, 43.80890
1105.789, 45.09076
1106.271, 46.17932
1106.753, 47.03366
1107.235, 47.38824
1107.717, 47.16208
1108.199, 46.72400
1108.682, 45.92374
1109.164, 45.32721
1109.646, 46.48669
1110.128, 48.62097
1110.610, 49.83475
1111.092, 48.66028
1111.574, 47.60107
1112.056, 46.74173
1112.539, 46.32385
1113.021, 46.94916
1113.503, 48.20038
1113.985, 48.43564
1114.467, 47.68661
1114.949, 46.74240
1115.431, 45.48267
1115.913, 44.81134
1116.396, 45.51099
1116.878, 46.65872
1117.360, 46.56390
1117.842, 45.33340
1118.324, 45.03720
1118.806, 45.98807
1119.288, 46.76178
1119.770, 45.99237
1120.252, 44.88367
1120.734, 44.32327
1121.217, 44.19781
1121.699, 43.72382
1122.181, 42.81250
1122.663, 42.50656
1123.145, 43.31934
1123.627, 43.95871
1124.109, 42.45471
1124.591, 40.29889
1125.074, 39.30243
1125.556, 39.96826
1126.038, 39.90158
1126.520, 38.85138
1127.002, 37.78824
1127.484, 37.09900
1127.966, 36.64999
1128.448, 36.36694
1128.931, 36.11505
1129.413, 35.57846
1129.895, 34.31006
1130.377, 33.73798
1130.859, 34.36612
1131.341, 34.92569
1131.823, 34.45682
1132.305, 33.31131
1132.787, 32.68576
1133.270, 32.43103
1133.752, 32.02094
1134.234, 31.26251
1134.716, 30.21573
1135.198, 28.51019
1135.680, 26.95703
1136.162, 26.60101
1136.644, 27.26837
1137.126, 26.92905
1137.609, 25.65503
1138.091, 24.54953
1138.573, 24.54535
1139.055, 24.55853
1139.537, 24.05096
1140.019, 23.29294
1140.501, 22.45221
1140.983, 21.61545
1141.466, 21.20270
1141.948, 21.30817
1142.430, 21.35519
1142.912, 20.97052
1143.394, 20.17532
1143.876, 18.49896
1144.358, 16.47559
1144.840, 16.48630
1145.323, 18.88904
1145.805, 19.83408
1146.287, 18.33878
1146.769, 16.22549
1147.251, 15.52829
1147.733, 15.49179
1148.215, 15.46793
1148.697, 15.26407
1149.179, 14.78925
1149.661, 14.12048
1150.144, 13.24911
1150.626, 12.15680
1151.108, 10.93512
1151.590, 9.378479
1152.072, 7.969482
1152.554, 7.432678
1153.036, 8.014343
1153.518, 8.402679
1154.001, 8.596649
1154.483, 8.716949
1154.965, 8.767273
1155.447, 8.833771
1155.929, 9.062531
1156.411, 9.422760
1156.893, 9.989563
1157.375, 11.20435
1157.858, 11.79340
1158.340, 11.15283
1158.822, 10.52338
1159.304, 11.14343
1159.786, 12.35428
1160.268, 11.42883
1160.750, 9.084656
1161.232, 7.610107
1161.714, 8.894073
1162.197, 9.735535
1162.679, 9.190796
1163.161, 8.164307
1163.643, 7.505585
1164.125, 7.242371
1164.607, 7.015198
1165.089, 6.780884
1165.571, 6.738342
1166.053, 7.134613
1166.536, 7.738037
1167.018, 8.892212
1167.500, 9.866791
1167.982, 9.662750
1168.464, 8.418335
1168.946, 7.453491
1169.428, 6.820526
1169.910, 6.110626
1170.393, 4.707825
1170.875, 3.605011
1171.357, 3.422974
1171.839, 3.774750
1172.321, 4.346588
1172.803, 5.144409
1173.285, 4.925629
1173.767, 3.471130
1174.250, 2.467010
1174.732, 3.942932
1175.214, 5.568848
1175.696, 5.637360
1176.178, 4.680817
1176.660, 4.061066
1177.142, 3.803680
1177.624, 3.688385
1178.106, 3.691681
1178.589, 3.761963
1179.071, 4.000183
1179.553, 4.188843
1180.035, 3.989288
1180.517, 3.529053
1180.999, 3.545410
1181.481, 4.094421
1181.963, 4.742554
1182.445, 5.422516
1182.928, 5.961212
1183.410, 6.093903
1183.892, 6.048981
1184.374, 6.119202
1184.856, 5.884003
1185.338, 6.002563
1185.820, 5.208099
1186.302, 4.439453
1186.785, 3.772919
1187.267, 3.465729
1187.749, 4.367249
1188.231, 5.419922
1188.713, 5.135590
1189.195, 3.265442
1189.677, 2.717163
1190.159, 3.694489
1190.641, 4.196228
1191.124, 3.093231
1191.606, 1.755768
1192.088, 2.177307
1192.570, 1.026489
1193.052, 2.793274
1193.534, 0.4501340
1194.016, 0.3816830
1194.498, 0.5038760
1194.980, 1.754089
1195.463, 3.162903
1195.945, 3.946472
1196.427, 2.224884
1196.909, 0.3982850
1197.391, 1.283386
1197.873, 0.7242740
1198.355, 1.514496
1198.837, 0.8875730
1199.320, 3.4240998E-02
1199.802, 0.7955320
1200.284, 1.238281
1200.766, 0.6494450
1201.248, 0.2242740
1201.730, 9.7075999E-02
1202.212, 2.867706
1202.694, 4.116882
1203.177, 3.715088
1203.659, 2.516144
1204.141, 7.3761001E-02
1204.623, 1.985840
1205.105, 0.6870420
1205.587, 2.370880
1206.069, 3.484711
1206.551, 1.140625
1207.033, 0.3805240
1207.516, 0.9359130
1207.998, 0.9555660
1208.480, 0.5613400
1208.962, 6.3169999E-03
1209.444, 0.7522280
1209.926, 1.404449
1210.408, 1.075592
1210.890, 1.013702
1211.372, 1.875641
1211.854, 1.175140
1212.337, 0.1212160
1212.819, 0.5018920
1213.301, 0.7218320
1213.783, 0.2480160
1214.265, 0.5969540
1214.747, 0.6443180
1215.229, 0.6802980
1215.711, 1.038635
1216.194, 7.4828997E-02
1216.676, 0.9356990
1217.158, 0.7479250
1217.640, 4.5959000E-02
1218.122, 0.6347350
1218.604, 1.199738
1219.086, 1.493011
1219.568, 1.650299
1220.051, 0.8076480
1220.533, 1.360291
1221.015, 3.091583
1221.497, 1.819153
1221.979, 5.1360998E-02
1222.461, 2.8564001E-02
1222.943, 1.608643
1223.425, 3.029663
1223.907, 4.223846
1224.390, 4.868561
1224.872, 4.886475
1225.354, 4.556610
1225.836, 3.840027
1226.318, 3.155060
1226.800, 2.932587
1227.282, 3.128601
1227.764, 3.253235
1228.246, 3.228943
1228.729, 3.779999
1229.211, 5.143188
1229.693, 6.081482
1230.175, 4.657288
1230.657, 2.964508
1231.139, 3.030823
1231.621, 4.527039
1232.103, 5.362488
1232.586, 5.428955
1233.068, 6.087708
1233.550, 7.674744
1234.032, 8.908478
1234.514, 8.286896
1234.996, 7.168549
1235.478, 6.579620
1235.960, 6.433075
1236.443, 6.202820
1236.925, 5.865753
1237.407, 6.443054
1237.889, 8.262024
1238.371, 9.470154
1238.853, 7.911957
1239.335, 5.782776
1239.817, 4.448792
1240.299, 3.851868
1240.781, 3.914825
1241.264, 4.586273
1241.746, 5.524078
1242.228, 6.722717
1242.710, 7.694244
1243.192, 7.953766
1243.674, 8.031769
1244.156, 8.268860
1244.638, 8.557587
1245.121, 8.558502
1245.603, 8.313965
1246.085, 7.949371
1246.567, 7.428711
1247.049, 7.521484
1247.531, 9.568329
1248.013, 11.29715
1248.495, 11.92529
1248.978, 11.56039
1249.460, 10.39288
1249.942, 8.828094
1250.424, 9.168640
1250.906, 11.92123
1251.388, 13.96317
1251.870, 13.42245
1252.352, 12.40982
1252.834, 11.02191
1253.317, 9.846100
1253.799, 11.00803
1254.281, 12.82755
1254.763, 12.58752
1255.245, 10.06357
1255.727, 8.297699
1256.209, 9.344086
1256.691, 10.61435
1257.173, 10.80966
1257.656, 10.25034
1258.138, 9.549652
1258.620, 9.339844
1259.102, 9.611694
1259.584, 10.37418
1260.066, 10.77344
1260.548, 10.36597
1261.030, 9.726807
1261.513, 9.261597
1261.995, 8.705444
1262.477, 8.329346
1262.959, 8.079529
1263.441, 7.971680
1263.923, 7.340240
1264.405, 7.176300
1264.887, 7.962891
1265.370, 8.718567
1265.852, 9.121918
1266.334, 9.324615
1266.816, 9.964050
1267.298, 10.40277
1267.780, 9.747955
1268.262, 7.822510
1268.744, 6.871429
1269.226, 7.139221
1269.708, 7.103577
1270.191, 6.264557
1270.673, 5.704865
1271.155, 7.192169
1271.637, 8.936066
1272.119, 9.260834
1272.601, 8.439087
1273.083, 8.476868
1273.565, 9.469696
1274.048, 9.012970
1274.530, 6.319275
1275.012, 4.052887
1275.494, 4.432709
1275.976, 5.509796
1276.458, 6.364441
1276.940, 7.060486
1277.422, 7.352722
1277.905, 7.192810
1278.387, 6.681152
1278.869, 5.820038
1279.351, 5.418640
1279.833, 6.405426
1280.315, 7.472534
1280.797, 8.111786
1281.279, 8.336243
1281.761, 7.748657
1282.244, 6.559174
1282.726, 5.118958
1283.208, 3.520386
1283.690, 2.870300
1284.172, 4.274689
1284.654, 5.345642
1285.136, 5.520691
1285.618, 5.210297
1286.100, 4.498901
1286.583, 3.863403
1287.065, 4.302948
1287.547, 5.748810
1288.029, 6.385864
1288.511, 5.845886
1288.993, 5.257324
1289.475, 4.723511
1289.957, 4.491272
1290.440, 5.333130
1290.922, 6.135895
1291.404, 5.441284
1291.886, 3.548126
1292.368, 2.660217
1292.850, 2.886108
1293.332, 3.092407
1293.814, 3.116241
1294.297, 3.089935
1294.779, 3.139191
1295.261, 3.159424
1295.743, 2.989349
1296.225, 2.616547
1296.707, 1.876556
1297.189, 0.8391110
1297.671, 9.3445003E-02
1298.153, 0.2875370
1298.635, 2.5359999E-02
1299.118, 1.911407
1299.600, 3.650757
1300.082, 4.843414
1300.564, 5.388916
1301.046, 4.883759
1301.528, 3.747314
1302.010, 2.906250
1302.492, 3.008850
1302.975, 2.980469
1303.457, 2.189362
1303.939, 1.305511
1304.421, 0.3759770
1304.903, 1.1963000E-02
1305.385, 0.0000000E+00
##END=



