##NAMES=Andradite
##RRUFFID=R070722
##IDEAL CHEMISTRY=Ca_3_Fe^3+^_2_(SiO_4_)_3_
##LOCALITY=Otjosondu, Namibia
##OWNER=RRUFF
##SOURCE=Royal Ontario Museum
##DESCRIPTION=Dark red-brown to orange semi-transparent druse of crystals associated with quartz.
##STATUS=The identification of this mineral is confirmed by single-crystal X-ray diffraction and chemical analysis.
##URL=rruff.info/R070722
##MEASURED CHEMISTRY=(Ca_1.77_Mn^2+^_1.27_Mg_0.02_)_Σ=3.06_(Fe^3+^_1.58_Al^3+^_0.38_Ti_0.01_)_Σ=1.97_(SiO_4_)_3_
127.2373, 0.0000000E+00
127.7194, 49.19629
128.2015, 98.06152
128.6837, 134.3818
129.1658, 142.6426
129.6479, 84.09863
130.1300, 34.24512
130.6121, 9.210938
131.0942, 0.9785160
131.5764, 0.8251950
132.0585, 0.1562500
132.5406, 7.616211
133.0227, 19.74414
133.5048, 44.16406
133.9869, 58.55469
134.4691, 58.18359
134.9512, 47.63574
135.4333, 34.79590
135.9154, 21.91016
136.3975, 10.15039
136.8796, 1.138672
137.3618, 4.907227
137.8439, 6.940430
138.3260, 29.54199
138.8081, 29.46680
139.2902, 31.74121
139.7723, 60.32812
140.2545, 114.4033
140.7366, 147.4346
141.2187, 150.0352
141.7008, 133.5088
142.1829, 104.0928
142.6650, 58.49805
143.1472, 17.22266
143.6293, 2.635742
144.1114, 9.965820
144.5935, 25.85547
145.0756, 55.20703
145.5577, 90.69238
146.0399, 107.3057
146.5220, 95.45605
147.0041, 67.74023
147.4862, 29.62109
147.9683, 17.53711
148.4504, 56.54102
148.9326, 71.23730
149.4147, 60.08203
149.8968, 42.40234
150.3789, 12.30957
150.8610, 17.77637
151.3431, 37.74316
151.8252, 45.80078
152.3074, 53.46777
152.7895, 82.06250
153.2716, 150.3574
153.7537, 198.4736
154.2358, 210.0547
154.7179, 207.2822
155.2001, 209.7588
155.6822, 225.9707
156.1643, 249.5361
156.6464, 260.3623
157.1285, 231.0957
157.6106, 220.6279
158.0928, 248.6777
158.5749, 296.1885
159.0570, 336.5420
159.5391, 353.1650
160.0212, 348.9072
160.5033, 354.8008
160.9855, 364.8408
161.4676, 389.0186
161.9497, 447.7158
162.4318, 527.0928
162.9139, 588.5596
163.3960, 599.0840
163.8782, 556.1289
164.3603, 533.4717
164.8424, 538.1289
165.3245, 554.9287
165.8066, 582.3789
166.2887, 618.6816
166.7709, 644.8105
167.2530, 635.7910
167.7351, 592.3623
168.2172, 567.0547
168.6993, 571.8701
169.1814, 595.0557
169.6636, 625.8389
170.1457, 665.1416
170.6278, 703.0137
171.1099, 731.1562
171.5920, 750.8516
172.0741, 758.8721
172.5563, 741.0547
173.0384, 709.2441
173.5205, 698.6572
174.0026, 719.9707
174.4847, 758.0273
174.9668, 801.8184
175.4490, 850.6855
175.9311, 894.5928
176.4132, 930.4678
176.8953, 958.1523
177.3774, 967.2188
177.8595, 942.5840
178.3417, 907.6318
178.8238, 869.6504
179.3059, 830.6221
179.7880, 804.5146
180.2701, 805.4404
180.7522, 833.8584
181.2344, 888.9893
181.7165, 1031.244
182.1986, 1161.144
182.6807, 1204.945
183.1628, 1144.371
183.6449, 1033.214
184.1271, 960.5498
184.6092, 943.7939
185.0913, 934.2139
185.5734, 931.0684
186.0555, 929.1768
186.5376, 918.9102
187.0198, 896.5635
187.5019, 874.8154
187.9840, 888.5527
188.4661, 995.6045
188.9482, 1065.361
189.4303, 1065.619
189.9125, 1031.470
190.3946, 1003.045
190.8767, 1000.691
191.3588, 1018.985
191.8409, 1032.154
192.3230, 1038.839
192.8052, 1041.850
193.2873, 1027.000
193.7694, 1009.573
194.2515, 1021.207
194.7336, 1086.201
195.2157, 1194.600
195.6979, 1248.463
196.1800, 1200.790
196.6621, 1159.811
197.1442, 1161.909
197.6263, 1203.206
198.1084, 1271.123
198.5906, 1367.599
199.0727, 1485.362
199.5548, 1551.403
200.0369, 1519.392
200.5190, 1480.225
201.0011, 1485.643
201.4833, 1535.009
201.9654, 1601.177
202.4475, 1670.807
202.9296, 1742.523
203.4117, 1800.060
203.8938, 1832.947
204.3760, 1859.377
204.8581, 1898.019
205.3402, 1951.835
205.8223, 2003.000
206.3044, 2018.661
206.7865, 2013.965
207.2687, 2046.880
207.7508, 2158.816
208.2329, 2302.329
208.7150, 2407.768
209.1971, 2461.774
209.6792, 2512.486
210.1614, 2611.457
210.6435, 2737.654
211.1256, 2841.541
211.6077, 2877.632
212.0898, 2884.897
212.5719, 2956.293
213.0541, 3126.436
213.5362, 3293.649
214.0183, 3375.049
214.5004, 3398.429
214.9825, 3431.561
215.4646, 3511.466
215.9468, 3630.776
216.4289, 3758.271
216.9110, 3898.047
217.3931, 4036.446
217.8752, 4170.646
218.3573, 4301.664
218.8395, 4427.406
219.3216, 4540.736
219.8037, 4640.339
220.2858, 4741.495
220.7679, 4836.260
221.2500, 4948.527
221.7322, 5101.670
222.2143, 5283.706
222.6964, 5458.603
223.1785, 5599.246
223.6606, 5705.064
224.1427, 5790.448
224.6249, 5840.255
225.1070, 5880.676
225.5891, 5920.088
226.0712, 5958.675
226.5533, 5993.717
227.0354, 6026.535
227.5176, 6060.197
227.9997, 6067.891
228.4818, 6039.879
228.9639, 5992.658
229.4460, 5931.739
229.9281, 5857.191
230.4103, 5765.168
230.8924, 5650.447
231.3745, 5508.053
231.8566, 5362.268
232.3387, 5196.420
232.8208, 5040.320
233.3030, 4909.392
233.7851, 4802.812
234.2672, 4713.030
234.7493, 4642.520
235.2314, 4622.809
235.7135, 4500.777
236.1957, 4199.758
236.6778, 3877.208
237.1599, 3609.069
237.6420, 3405.062
238.1241, 3239.498
238.6062, 3085.296
239.0884, 2941.924
239.5705, 2813.397
240.0526, 2695.653
240.5347, 2593.163
241.0168, 2515.357
241.4989, 2459.475
241.9811, 2412.248
242.4632, 2361.656
242.9453, 2319.843
243.4274, 2227.735
243.9095, 2048.228
244.3916, 1854.390
244.8738, 1681.531
245.3559, 1539.204
245.8380, 1426.019
246.3201, 1343.436
246.8022, 1305.226
247.2843, 1255.902
247.7665, 1196.663
248.2486, 1126.558
248.7307, 1035.549
249.2128, 926.2227
249.6949, 823.1904
250.1770, 756.5645
250.6592, 741.9043
251.1413, 712.5576
251.6234, 646.7295
252.1055, 581.8164
252.5876, 555.0693
253.0697, 567.9209
253.5519, 580.8027
254.0340, 548.2109
254.5161, 453.9492
254.9982, 374.3965
255.4803, 310.5312
255.9624, 260.5459
256.4445, 225.6963
256.9267, 205.5166
257.4088, 194.6250
257.8909, 191.4023
258.3730, 200.3789
258.8551, 184.3438
259.3372, 109.9189
259.8194, 32.05273
260.3015, 1.591797
260.7836, 22.56934
261.2657, 55.05664
261.7478, 62.88477
262.2299, 41.82227
262.7121, 9.558594
263.1942, 52.20996
263.6763, 112.9805
264.1584, 146.0049
264.6405, 149.2764
265.1227, 140.6309
265.6048, 134.6660
266.0869, 131.6045
266.5690, 126.3379
267.0511, 118.8887
267.5332, 109.0850
268.0154, 90.65918
268.4975, 64.45410
268.9796, 50.18262
269.4617, 69.72852
269.9438, 123.0127
270.4259, 158.2686
270.9081, 163.3672
271.3902, 157.7354
271.8723, 154.7949
272.3544, 155.4287
272.8365, 157.7520
273.3186, 163.1992
273.8008, 169.7363
274.2829, 163.7236
274.7650, 125.9268
275.2471, 89.58789
275.7292, 89.19434
276.2113, 121.8262
276.6935, 143.6016
277.1756, 121.0176
277.6577, 58.89258
278.1398, 8.424805
278.6219, 26.85938
279.1040, 53.73828
279.5862, 73.61328
280.0683, 87.58398
280.5504, 102.2432
281.0325, 120.0576
281.5146, 142.5293
281.9967, 172.1191
282.4789, 206.9961
282.9610, 250.3506
283.4431, 305.8926
283.9252, 372.5732
284.4073, 444.0010
284.8894, 517.9277
285.3716, 594.1035
285.8537, 672.1602
286.3358, 755.8154
286.8179, 836.4092
287.3000, 907.4941
287.7821, 970.9277
288.2643, 1031.813
288.7464, 1090.618
289.2285, 1151.007
289.7106, 1220.215
290.1927, 1296.105
290.6748, 1382.687
291.1570, 1484.039
291.6391, 1598.216
292.1212, 1718.656
292.6033, 1843.418
293.0854, 1972.825
293.5675, 2108.514
294.0497, 2255.861
294.5318, 2397.778
295.0139, 2520.296
295.4960, 2632.624
295.9781, 2755.079
296.4602, 2893.519
296.9424, 3046.238
297.4245, 3216.130
297.9066, 3412.057
298.3887, 3585.636
298.8708, 3713.667
299.3529, 3810.926
299.8351, 3897.478
300.3172, 3974.572
300.7993, 4056.231
301.2814, 4163.810
301.7635, 4294.927
302.2456, 4444.639
302.7278, 4636.322
303.2099, 4836.617
303.6920, 4998.830
304.1741, 5113.030
304.6562, 5197.454
305.1383, 5266.049
305.6205, 5317.514
306.1026, 5373.836
306.5847, 5441.411
307.0668, 5513.331
307.5489, 5584.454
308.0310, 5654.344
308.5132, 5720.354
308.9953, 5785.150
309.4774, 5847.467
309.9595, 5877.605
310.4416, 5857.576
310.9237, 5816.890
311.4059, 5776.869
311.8880, 5738.821
312.3701, 5695.979
312.8522, 5644.309
313.3343, 5582.549
313.8164, 5506.797
314.2986, 5405.099
314.7807, 5301.134
315.2628, 5204.359
315.7449, 5116.312
316.2270, 5036.204
316.7091, 4959.506
317.1913, 4892.915
317.6734, 4870.315
318.1555, 4945.010
318.6376, 4999.814
319.1197, 4960.973
319.6018, 4865.930
320.0840, 4806.380
320.5661, 4829.948
321.0482, 4908.296
321.5303, 4956.738
322.0124, 4948.783
322.4945, 4956.824
322.9767, 5005.699
323.4588, 5077.943
323.9409, 5146.544
324.4230, 5201.205
324.9051, 5252.338
325.3872, 5321.207
325.8694, 5409.497
326.3515, 5514.782
326.8336, 5652.438
327.3157, 5795.932
327.7978, 5917.926
328.2799, 6012.741
328.7621, 6094.460
329.2442, 6182.059
329.7263, 6281.242
330.2084, 6368.485
330.6905, 6419.641
331.1726, 6475.853
331.6548, 6580.227
332.1369, 6730.924
332.6190, 6881.310
333.1011, 6978.443
333.5832, 7005.910
334.0653, 7055.408
334.5475, 7136.436
335.0296, 7229.484
335.5117, 7327.877
335.9938, 7429.913
336.4759, 7537.844
336.9580, 7655.641
337.4402, 7783.023
337.9223, 7900.826
338.4044, 7987.096
338.8865, 8087.292
339.3686, 8214.279
339.8507, 8363.809
340.3329, 8528.076
340.8150, 8704.362
341.2971, 8889.784
341.7792, 9072.782
342.2613, 9242.853
342.7434, 9424.453
343.2256, 9617.147
343.7077, 9822.945
344.1898, 10039.73
344.6719, 10266.99
345.1540, 10513.99
345.6361, 10802.24
346.1183, 11140.34
346.6004, 11506.61
347.0825, 11898.01
347.5646, 12309.35
348.0467, 12737.80
348.5288, 13180.69
349.0110, 13645.27
349.4931, 14139.81
349.9752, 14672.40
350.4573, 15209.31
350.9394, 15734.42
351.4215, 16283.49
351.9037, 16882.47
352.3858, 17526.18
352.8679, 18185.52
353.3500, 18823.92
353.8321, 19443.19
354.3142, 20128.26
354.7964, 20919.61
355.2785, 21722.50
355.7606, 22495.47
356.2427, 23257.96
356.7248, 24050.29
357.2069, 24899.62
357.6891, 25780.60
358.1712, 26612.05
358.6533, 27364.47
359.1354, 28152.68
359.6175, 29060.10
360.0996, 30007.00
360.5818, 30902.39
361.0639, 31711.64
361.5460, 32482.46
362.0281, 33291.11
362.5102, 34152.86
362.9923, 34931.98
363.4745, 35590.18
363.9566, 36132.49
364.4387, 36567.89
364.9208, 36902.22
365.4029, 37112.64
365.8850, 37183.43
366.3672, 37113.29
366.8493, 36911.15
367.3314, 36599.66
367.8135, 36118.80
368.2956, 35399.36
368.7777, 34462.04
369.2599, 33417.50
369.7420, 32289.58
370.2241, 31092.12
370.7062, 29844.81
371.1883, 28543.88
371.6704, 27232.25
372.1526, 25930.42
372.6347, 24630.41
373.1168, 23314.05
373.5989, 21917.76
374.0810, 20550.54
374.5631, 19293.96
375.0453, 18140.90
375.5274, 17046.15
376.0095, 15976.16
376.4916, 14943.56
376.9737, 13981.20
377.4558, 13100.42
377.9380, 12262.01
378.4201, 11446.28
378.9022, 10660.45
379.3843, 9929.102
379.8664, 9263.751
380.3485, 8648.781
380.8307, 8064.937
381.3128, 7506.995
381.7949, 6987.727
382.2770, 6513.262
382.7591, 6073.755
383.2412, 5668.034
383.7234, 5293.374
384.2055, 4944.958
384.6876, 4620.171
385.1697, 4320.668
385.6518, 4037.942
386.1339, 3777.160
386.6161, 3524.804
387.0982, 3261.293
387.5803, 2997.905
388.0624, 2769.928
388.5445, 2604.724
389.0266, 2496.470
389.5088, 2385.661
389.9909, 2295.652
390.4730, 2173.866
390.9551, 1971.579
391.4372, 1746.494
391.9193, 1574.204
392.4015, 1488.397
392.8836, 1453.076
393.3657, 1395.344
393.8478, 1306.811
394.3299, 1216.948
394.8120, 1124.060
395.2942, 1035.131
395.7763, 955.6641
396.2584, 886.0674
396.7405, 822.1416
397.2226, 759.6162
397.7047, 698.7695
398.1869, 640.6943
398.6690, 587.0674
399.1511, 534.5088
399.6332, 478.5293
400.1153, 421.9072
400.5974, 372.1328
401.0796, 335.0176
401.5617, 307.0195
402.0438, 282.6074
402.5259, 264.4600
403.0080, 239.3320
403.4901, 187.5576
403.9723, 127.6982
404.4544, 89.68750
404.9365, 85.63281
405.4186, 92.57715
405.9007, 98.34180
406.3828, 101.1719
406.8650, 88.67285
407.3471, 49.32617
407.8292, 2.187500
408.3113, 20.19043
408.7934, 14.86230
409.2755, 9.521484
409.7577, 8.175781
410.2398, 12.17969
410.7219, 27.93164
411.2040, 56.53906
411.6861, 80.83008
412.1682, 79.80469
412.6504, 48.45020
413.1325, 39.77441
413.6146, 82.93262
414.0967, 121.2949
414.5788, 114.8809
415.0609, 75.26172
415.5431, 41.78809
416.0252, 39.26270
416.5073, 60.52637
416.9894, 72.16797
417.4715, 54.82422
417.9536, 51.20703
418.4358, 78.51074
418.9179, 115.3760
419.4000, 140.2188
419.8821, 146.1904
420.3642, 139.5449
420.8463, 126.6699
421.3285, 99.19629
421.8106, 88.99414
422.2927, 122.7588
422.7748, 149.5059
423.2569, 137.4609
423.7390, 93.72266
424.2212, 48.80762
424.7033, 23.78516
425.1854, 17.40234
425.6675, 25.09863
426.1496, 61.90820
426.6317, 86.70801
427.1139, 72.06934
427.5960, 42.05273
428.0781, 30.38965
428.5602, 54.26465
429.0423, 83.79102
429.5244, 73.84961
430.0066, 23.17285
430.4887, 8.890625
430.9708, 5.589844
431.4529, 35.42969
431.9350, 44.79883
432.4171, 32.79395
432.8993, 17.49512
433.3814, 5.002930
433.8635, 4.486328
434.3456, 7.911133
434.8277, 3.640625
435.3098, 4.101563
435.7920, 24.16895
436.2741, 61.55273
436.7562, 84.42676
437.2383, 77.21484
437.7204, 68.57227
438.2025, 76.28223
438.6847, 96.54492
439.1668, 117.9053
439.6489, 135.3916
440.1310, 148.6426
440.6131, 156.2559
441.0952, 140.4648
441.5774, 144.4941
442.0595, 186.5752
442.5416, 239.8154
443.0237, 279.8525
443.5058, 302.6143
443.9879, 318.4463
444.4701, 337.4717
444.9522, 358.7256
445.4343, 389.8018
445.9164, 450.4385
446.3985, 500.8447
446.8806, 521.5010
447.3628, 523.1875
447.8449, 525.4316
448.3270, 537.8926
448.8091, 559.6270
449.2912, 589.2988
449.7733, 628.6562
450.2555, 670.9580
450.7376, 718.9346
451.2197, 766.3887
451.7018, 813.0801
452.1839, 858.4307
452.6660, 889.0791
453.1482, 881.2334
453.6303, 845.9043
454.1124, 841.1602
454.5945, 890.3975
455.0766, 933.7422
455.5587, 907.1660
456.0409, 832.0752
456.5230, 768.8682
457.0051, 747.5986
457.4872, 730.4561
457.9693, 676.3955
458.4514, 592.2012
458.9336, 520.7363
459.4156, 485.9775
459.8978, 472.4082
460.3799, 437.5889
460.8620, 368.3027
461.3441, 306.6348
461.8262, 268.1709
462.3083, 236.3125
462.7905, 189.8232
463.2726, 126.5586
463.7547, 65.63281
464.2368, 26.53711
464.7189, 10.85059
465.2010, 3.875000
465.6832, 4.306641
466.1653, 13.32129
466.6474, 40.31445
467.1295, 75.76953
467.6116, 103.4775
468.0938, 114.1855
468.5759, 116.5850
469.0580, 130.7783
469.5401, 159.6318
470.0222, 195.0703
470.5043, 246.6504
470.9865, 297.9033
471.4686, 332.5039
471.9507, 351.3643
472.4328, 374.3213
472.9149, 420.5547
473.3970, 483.1865
473.8792, 534.8027
474.3613, 568.4678
474.8434, 603.1738
475.3255, 653.9561
475.8076, 715.3340
476.2897, 777.4902
476.7719, 842.8428
477.2540, 903.5625
477.7361, 944.6787
478.2182, 977.2080
478.7003, 1037.525
479.1824, 1143.111
479.6646, 1264.572
480.1467, 1352.982
480.6288, 1396.664
481.1109, 1449.326
481.5930, 1516.625
482.0751, 1594.443
482.5573, 1682.338
483.0394, 1776.748
483.5215, 1869.757
484.0036, 1954.733
484.4857, 2032.748
484.9678, 2107.678
485.4500, 2161.560
485.9321, 2238.396
486.4142, 2358.417
486.8963, 2490.982
487.3784, 2612.769
487.8605, 2718.408
488.3427, 2810.703
488.8248, 2881.796
489.3069, 2928.753
489.7890, 3008.493
490.2711, 3163.696
490.7532, 3301.285
491.2354, 3352.884
491.7175, 3350.665
492.1996, 3373.230
492.6817, 3473.938
493.1638, 3588.006
493.6459, 3634.476
494.1281, 3617.599
494.6102, 3594.850
495.0923, 3585.853
495.5744, 3584.287
496.0565, 3581.138
496.5386, 3578.331
497.0208, 3566.855
497.5029, 3539.670
497.9850, 3505.717
498.4671, 3474.053
498.9492, 3445.290
499.4313, 3413.660
499.9135, 3372.872
500.3956, 3324.775
500.8777, 3292.990
501.3598, 3304.501
501.8419, 3300.041
502.3240, 3233.857
502.8062, 3163.716
503.2883, 3164.688
503.7704, 3255.375
504.2525, 3374.577
504.7346, 3433.084
505.2167, 3414.806
505.6989, 3452.443
506.1810, 3578.105
506.6631, 3730.146
507.1452, 3878.662
507.6273, 4029.374
508.1094, 4197.184
508.5916, 4389.441
509.0737, 4600.366
509.5558, 4814.330
510.0379, 5031.632
510.5200, 5287.772
511.0021, 5601.211
511.4843, 5952.521
511.9664, 6316.659
512.4485, 6694.492
512.9306, 7074.252
513.4127, 7442.648
513.8948, 7816.513
514.3770, 8214.693
514.8591, 8636.864
515.3412, 9061.351
515.8233, 9466.609
516.3054, 9865.256
516.7875, 10323.34
517.2697, 10900.26
517.7518, 11467.42
518.2339, 12027.76
518.7160, 12567.60
519.1981, 13069.67
519.6802, 13534.93
520.1624, 13982.08
520.6445, 14451.94
521.1266, 14947.88
521.6087, 15330.92
522.0908, 15577.87
522.5729, 15734.11
523.0551, 15846.90
523.5372, 15888.12
524.0193, 15811.41
524.5014, 15599.72
524.9835, 15274.41
525.4656, 14834.36
525.9478, 14293.04
526.4299, 13709.36
526.9120, 13101.01
527.3941, 12454.57
527.8762, 11734.73
528.3583, 10938.06
528.8405, 10182.98
529.3226, 9497.531
529.8047, 8839.689
530.2868, 8159.921
530.7689, 7480.146
531.2510, 6860.256
531.7332, 6331.777
532.2153, 5873.320
532.6974, 5433.324
533.1795, 5000.225
533.6616, 4611.068
534.1437, 4283.748
534.6259, 3979.171
535.1080, 3671.014
535.5901, 3362.151
536.0722, 3077.499
536.5543, 2834.812
537.0364, 2629.964
537.5186, 2457.393
538.0007, 2321.557
538.4828, 2199.305
538.9649, 2085.112
539.4470, 1979.571
539.9291, 1884.600
540.4113, 1801.103
540.8934, 1723.567
541.3755, 1645.938
541.8576, 1574.148
542.3397, 1520.539
542.8218, 1486.020
543.3040, 1458.106
543.7861, 1428.640
544.2682, 1397.670
544.7503, 1365.662
545.2324, 1328.855
545.7145, 1295.688
546.1967, 1259.764
546.6788, 1232.759
547.1609, 1235.150
547.6430, 1267.378
548.1251, 1300.438
548.6072, 1296.373
549.0894, 1252.967
549.5715, 1244.764
550.0536, 1305.575
550.5357, 1353.324
551.0178, 1345.175
551.4999, 1312.110
551.9821, 1297.358
552.4642, 1315.955
552.9463, 1343.679
553.4284, 1362.173
553.9105, 1371.685
554.3926, 1369.508
554.8748, 1351.131
555.3569, 1336.616
555.8390, 1351.382
556.3211, 1394.033
556.8032, 1409.408
557.2853, 1391.795
557.7675, 1351.552
558.2496, 1278.840
558.7317, 1190.273
559.2138, 1115.192
559.6959, 1064.182
560.1780, 1022.925
560.6602, 971.9053
561.1423, 912.3936
561.6244, 839.2183
562.1065, 736.0415
562.5886, 635.7607
563.0707, 545.2866
563.5529, 466.5483
564.0350, 402.7183
564.5171, 358.9995
564.9992, 320.3818
565.4813, 261.9507
565.9634, 185.6885
566.4456, 125.0635
566.9277, 90.90332
567.4098, 67.88965
567.8919, 40.39209
568.3740, 9.154785
568.8561, 18.41699
569.3383, 40.57861
569.8204, 59.64746
570.3025, 76.10059
570.7846, 90.96338
571.2667, 109.4297
571.7488, 134.0127
572.2310, 153.6421
572.7131, 145.3374
573.1952, 93.64746
573.6773, 57.21191
574.1594, 53.28271
574.6415, 46.56885
575.1237, 21.54053
575.6058, 17.98242
576.0879, 63.88477
576.5700, 115.3779
577.0521, 163.0923
577.5342, 191.4707
578.0164, 200.3794
578.4985, 203.2153
578.9806, 201.4302
579.4627, 196.2954
579.9448, 188.5669
580.4269, 178.6445
580.9091, 169.4077
581.3912, 167.5967
581.8733, 162.9478
582.3554, 141.0605
582.8375, 109.3022
583.3196, 86.50000
583.8018, 80.54980
584.2839, 86.12646
584.7660, 97.55371
585.2481, 127.1938
585.7302, 126.3472
586.2123, 60.04297
586.6945, 0.2246090
587.1766, 20.05664
587.6587, 10.58643
588.1408, 0.7138670
588.6229, 6.409180
589.1050, 16.17432
589.5872, 10.38672
590.0693, 10.54346
590.5514, 28.97510
591.0335, 43.68164
591.5156, 50.94092
591.9977, 41.38330
592.4799, 19.16602
592.9620, 7.646973
593.4441, 5.627441
593.9262, 16.10742
594.4083, 51.98633
594.8904, 100.5454
595.3726, 138.5000
595.8547, 157.3896
596.3368, 158.5811
596.8189, 138.3838
597.3010, 85.43506
597.7831, 64.96973
598.2653, 111.2739
598.7474, 155.2900
599.2295, 175.1050
599.7116, 178.5820
600.1937, 179.0317
600.6758, 181.1753
601.1580, 181.5610
601.6401, 171.5361
602.1222, 155.1685
602.6043, 154.5381
603.0864, 176.3672
603.5685, 202.4766
604.0507, 219.1646
604.5328, 226.9678
605.0149, 232.0332
605.4970, 222.6880
605.9791, 223.5718
606.4612, 251.3711
606.9434, 290.8369
607.4255, 327.3027
607.9076, 354.9775
608.3897, 366.5034
608.8718, 350.5669
609.3539, 308.0835
609.8361, 273.8452
610.3182, 242.4878
610.8003, 226.6567
611.2824, 246.8345
611.7645, 276.2163
612.2466, 282.0576
612.7288, 257.1860
613.2109, 235.4419
613.6930, 252.3345
614.1751, 282.5234
614.6572, 270.5366
615.1393, 212.9702
615.6215, 160.7129
616.1036, 145.4165
616.5857, 158.5591
617.0678, 168.7471
617.5499, 184.2593
618.0320, 185.5215
618.5142, 156.7651
618.9963, 125.3052
619.4784, 111.4775
619.9605, 114.5430
620.4426, 123.9224
620.9247, 136.1758
621.4069, 146.8955
621.8890, 138.6084
622.3711, 107.1304
622.8532, 90.93604
623.3353, 113.2168
623.8174, 141.5854
624.2996, 140.1172
624.7817, 111.2891
625.2638, 87.36084
625.7459, 76.00537
626.2280, 72.37988
626.7101, 75.32617
627.1923, 82.51611
627.6744, 91.19385
628.1565, 100.5811
628.6386, 103.7920
629.1207, 86.87158
629.6028, 40.12939
630.0850, 10.53809
630.5671, 17.32910
631.0492, 26.59375
631.5313, 24.84180
632.0134, 16.71436
632.4955, 11.64893
632.9777, 13.49463
633.4598, 19.58154
633.9419, 31.82861
634.4240, 46.25146
634.9061, 46.83398
635.3882, 29.59814
635.8704, 12.63086
636.3525, 10.21143
636.8346, 19.86816
637.3167, 24.89746
637.7988, 27.32227
638.2809, 22.77881
638.7631, 3.961426
639.2452, 17.62402
639.7273, 32.29932
640.2094, 38.76270
640.6915, 39.49365
641.1736, 35.66357
641.6558, 28.08154
642.1379, 19.77832
642.6200, 11.09180
643.1021, 0.2866210
643.5842, 22.43945
644.0663, 40.14160
644.5485, 32.35400
645.0306, 0.2280270
645.5127, 21.15332
645.9948, 13.31055
646.4769, 3.149902
646.9590, 15.71582
647.4412, 24.43896
647.9233, 30.97266
648.4054, 35.56152
648.8875, 35.18896
649.3696, 23.04395
649.8517, 6.049316
650.3339, 19.12158
650.8160, 7.706055
651.2981, 10.98145
651.7802, 40.28857
652.2623, 69.38477
652.7444, 82.21973
653.2266, 73.37061
653.7087, 59.85352
654.1908, 53.11182
654.6729, 51.45605
655.1550, 49.98828
655.6371, 48.21191
656.1193, 53.27100
656.6014, 72.34131
657.0835, 99.75781
657.5656, 114.0747
658.0477, 104.3843
658.5298, 96.05420
659.0120, 83.78613
659.4941, 77.35352
659.9762, 91.42822
660.4583, 117.9902
660.9404, 130.8862
661.4225, 109.9272
661.9047, 77.46484
662.3868, 78.43750
662.8689, 111.5029
663.3510, 129.9727
663.8331, 117.9434
664.3152, 102.5176
664.7974, 115.1318
665.2795, 153.3423
665.7616, 168.0303
666.2437, 134.2769
666.7258, 104.7568
667.2079, 82.09814
667.6901, 82.62988
668.1722, 153.4609
668.6543, 287.1904
669.1364, 386.6978
669.6185, 339.4829
670.1006, 180.3105
670.5828, 134.9365
671.0649, 247.4448
671.5470, 327.3237
672.0291, 291.4741
672.5112, 209.3716
672.9933, 157.4409
673.4755, 137.1030
673.9576, 128.5635
674.4397, 139.5352
674.9218, 148.8350
675.4039, 131.3555
675.8860, 98.83008
676.3682, 85.65918
676.8503, 104.9980
677.3324, 128.8232
677.8145, 108.3203
678.2966, 32.08350
678.7787, 6.387207
679.2609, 64.35254
679.7430, 125.4307
680.2251, 168.9531
680.7072, 192.2632
681.1893, 186.8843
681.6714, 147.9038
682.1536, 108.2192
682.6357, 80.33057
683.1178, 65.97412
683.5999, 73.37012
684.0820, 99.54639
684.5641, 126.9160
685.0463, 146.3560
685.5284, 157.0215
686.0105, 156.3291
686.4926, 135.1865
686.9747, 123.0879
687.4568, 130.9473
687.9390, 138.6597
688.4211, 131.9434
688.9032, 120.1450
689.3853, 125.4399
689.8674, 160.7896
690.3495, 191.8765
690.8317, 179.6738
691.3138, 143.2261
691.7959, 126.0176
692.2780, 134.4346
692.7601, 154.1992
693.2422, 177.2295
693.7244, 200.4434
694.2065, 211.7524
694.6886, 194.2612
695.1707, 188.8140
695.6528, 208.5376
696.1349, 232.4731
696.6171, 246.6353
697.0992, 250.9199
697.5813, 253.4585
698.0634, 260.9775
698.5455, 265.8745
699.0276, 253.5332
699.5098, 230.1182
699.9919, 217.4028
700.4740, 219.6108
700.9561, 233.3091
701.4382, 258.9175
701.9203, 293.4111
702.4025, 316.3652
702.8846, 315.8271
703.3667, 314.5762
703.8488, 323.5762
704.3309, 330.4634
704.8130, 318.0498
705.2952, 292.0303
705.7773, 277.0742
706.2594, 291.2314
706.7415, 316.8350
707.2236, 330.8809
707.7057, 333.6362
708.1879, 320.6118
708.6700, 287.1182
709.1521, 262.3843
709.6342, 278.7954
710.1163, 333.0913
710.5984, 360.7021
711.0806, 342.5918
711.5627, 323.6870
712.0448, 306.3140
712.5269, 296.0913
713.0090, 299.8179
713.4911, 315.8696
713.9733, 336.2939
714.4554, 361.9312
714.9375, 382.3101
715.4196, 374.0088
715.9017, 341.0381
716.3839, 318.2178
716.8660, 316.6064
717.3481, 316.3623
717.8302, 293.7266
718.3123, 248.7437
718.7944, 233.0933
719.2766, 274.7559
719.7587, 307.0278
720.2408, 315.2441
720.7229, 312.7729
721.2050, 307.9824
721.6871, 303.3770
722.1693, 302.0479
722.6514, 309.6860
723.1335, 318.7153
723.6156, 314.7144
724.0977, 299.1475
724.5798, 282.6646
725.0620, 266.8916
725.5441, 256.8979
726.0262, 260.0303
726.5083, 275.6948
726.9904, 284.9111
727.4725, 287.9155
727.9547, 284.1758
728.4368, 266.2222
728.9189, 247.3052
729.4010, 239.8296
729.8831, 242.7939
730.3652, 243.8999
730.8474, 235.5400
731.3295, 221.3643
731.8116, 200.0542
732.2937, 175.9863
732.7758, 174.5674
733.2579, 204.5649
733.7401, 237.4668
734.2222, 245.9995
734.7043, 231.6841
735.1864, 213.9644
735.6685, 188.4214
736.1506, 161.5581
736.6328, 128.8555
737.1149, 105.0244
737.5970, 101.0381
738.0791, 113.3169
738.5612, 126.5078
739.0433, 135.1479
739.5255, 137.7949
740.0076, 132.2290
740.4897, 119.2222
740.9718, 99.03027
741.4539, 72.22363
741.9360, 49.29639
742.4182, 39.11230
742.9003, 40.54346
743.3824, 47.04492
743.8645, 69.29053
744.3466, 77.31348
744.8287, 56.83252
745.3109, 31.61426
745.7930, 15.44580
746.2751, 7.830566
746.7572, 3.298828
747.2393, 1.096191
747.7214, 0.4692380
748.2036, 16.99463
748.6857, 39.17676
749.1678, 40.78223
749.6499, 19.03174
750.1320, 11.05029
750.6141, 40.28320
751.0963, 65.43799
751.5784, 70.54834
752.0605, 44.29248
752.5426, 31.22852
753.0247, 48.83203
753.5068, 67.55566
753.9890, 65.90576
754.4711, 51.53467
754.9532, 45.87793
755.4353, 57.66602
755.9174, 70.73535
756.3995, 77.20996
756.8817, 80.44336
757.3638, 83.61523
757.8459, 87.44922
758.3280, 93.54053
758.8101, 103.5835
759.2922, 112.2842
759.7744, 105.4385
760.2565, 80.80859
760.7386, 65.56592
761.2207, 66.08301
761.7028, 68.60059
762.1849, 67.42822
762.6671, 61.36865
763.1492, 45.23291
763.6313, 4.612793
764.1134, 13.10010
764.5955, 22.68164
765.0776, 68.14551
765.5598, 97.02246
766.0419, 107.4580
766.5240, 100.6216
767.0061, 76.60449
767.4882, 47.27002
767.9703, 39.08496
768.4525, 42.51709
768.9346, 12.97705
769.4167, 142.3130
769.8988, 231.0469
770.3809, 212.1675
770.8630, 131.2939
771.3452, 74.74170
771.8273, 47.31885
772.3094, 31.95117
772.7915, 42.51318
773.2736, 48.93408
773.7557, 35.67725
774.2379, 12.45898
774.7200, 11.77148
775.2021, 33.95752
775.6842, 40.87012
776.1663, 14.01807
776.6484, 29.49805
777.1306, 68.36719
777.6127, 100.0396
778.0948, 115.9214
778.5769, 112.2812
779.0590, 96.13525
779.5411, 71.81982
780.0233, 38.41992
780.5054, 39.31445
780.9875, 104.6074
781.4696, 154.4673
781.9517, 157.8911
782.4338, 147.7915
782.9160, 149.7241
783.3981, 163.7275
783.8802, 176.1851
784.3623, 187.6963
784.8444, 190.8784
785.3265, 169.6641
785.8087, 141.7017
786.2908, 139.1001
786.7729, 163.6504
787.2550, 186.2549
787.7371, 182.4517
788.2192, 163.3350
788.7014, 161.2598
789.1835, 177.8467
789.6656, 194.2217
790.1477, 204.7607
790.6298, 219.6372
791.1119, 249.9780
791.5941, 291.2656
792.0762, 323.7739
792.5583, 345.9331
793.0404, 361.8438
793.5225, 356.9844
794.0046, 358.9883
794.4868, 396.1147
794.9689, 454.7500
795.4510, 501.2598
795.9331, 520.5508
796.4152, 533.6016
796.8973, 554.9893
797.3795, 588.2505
797.8616, 649.7002
798.3437, 738.4541
798.8258, 819.2979
799.3079, 872.7373
799.7900, 915.5527
800.2722, 979.2231
800.7543, 1070.773
801.2364, 1155.448
801.7185, 1225.217
802.2006, 1299.254
802.6827, 1376.861
803.1649, 1463.609
803.6470, 1569.540
804.1291, 1696.237
804.6112, 1818.575
805.0933, 1921.652
805.5754, 2022.741
806.0576, 2136.691
806.5397, 2256.984
807.0218, 2362.509
807.5039, 2452.726
807.9860, 2560.792
808.4681, 2723.998
808.9503, 2921.672
809.4324, 3084.420
809.9145, 3211.298
810.3966, 3352.773
810.8787, 3521.638
811.3608, 3692.340
811.8430, 3838.810
812.3251, 3967.375
812.8072, 4126.885
813.2893, 4345.896
813.7714, 4550.733
814.2535, 4722.249
814.7357, 4890.745
815.2178, 5085.561
815.6999, 5291.972
816.1820, 5470.111
816.6641, 5600.891
817.1462, 5722.451
817.6284, 5862.832
818.1105, 6018.690
818.5926, 6193.098
819.0747, 6377.775
819.5568, 6539.291
820.0389, 6661.693
820.5211, 6761.488
821.0032, 6866.051
821.4853, 6978.194
821.9674, 7060.445
822.4495, 7103.266
822.9316, 7136.568
823.4138, 7176.622
823.8959, 7210.128
824.3780, 7217.569
824.8601, 7199.800
825.3422, 7178.605
825.8243, 7173.987
826.3065, 7142.427
826.7886, 7055.052
827.2707, 6941.106
827.7528, 6826.855
828.2349, 6718.627
828.7170, 6618.769
829.1992, 6532.855
829.6813, 6448.417
830.1633, 6353.842
830.6454, 6246.421
831.1276, 6118.301
831.6097, 5968.277
832.0918, 5801.611
832.5739, 5619.011
833.0560, 5428.634
833.5381, 5251.666
834.0203, 5084.683
834.5024, 4946.545
834.9845, 4857.905
835.4666, 4768.055
835.9487, 4642.130
836.4308, 4503.392
836.9130, 4382.648
837.3951, 4281.234
837.8772, 4201.489
838.3593, 4156.762
838.8414, 4121.718
839.3235, 4083.783
839.8057, 4044.382
840.2878, 3999.689
840.7699, 3952.896
841.2520, 3927.801
841.7341, 3949.126
842.2162, 3999.891
842.6984, 4049.536
843.1805, 4100.292
843.6626, 4164.645
844.1447, 4245.631
844.6268, 4329.046
845.1089, 4402.593
845.5911, 4469.309
846.0732, 4545.813
846.5553, 4635.706
847.0374, 4723.399
847.5195, 4786.183
848.0016, 4874.006
848.4838, 5037.433
848.9659, 5239.870
849.4480, 5411.893
849.9301, 5546.316
850.4122, 5659.170
850.8943, 5750.932
851.3765, 5826.723
851.8586, 5871.076
852.3407, 5908.360
852.8228, 5992.720
853.3049, 6132.923
853.7870, 6249.249
854.2692, 6261.426
854.7513, 6208.235
855.2334, 6156.653
855.7155, 6104.321
856.1976, 6040.060
856.6797, 5960.980
857.1619, 5869.527
857.6440, 5767.240
858.1261, 5653.553
858.6082, 5520.265
859.0903, 5355.385
859.5724, 5208.805
860.0546, 5096.999
860.5367, 4989.557
861.0188, 4863.232
861.5009, 4726.867
861.9830, 4601.109
862.4651, 4483.619
862.9473, 4384.586
863.4294, 4308.661
863.9115, 4247.113
864.3936, 4199.166
864.8757, 4163.173
865.3578, 4135.018
865.8400, 4112.095
866.3221, 4100.073
866.8042, 4107.687
867.2863, 4127.736
867.7684, 4141.317
868.2505, 4161.086
868.7327, 4224.832
869.2148, 4333.244
869.6969, 4450.204
870.1790, 4547.586
870.6611, 4640.603
871.1432, 4772.829
871.6254, 4944.408
872.1075, 5119.173
872.5896, 5288.596
873.0717, 5477.622
873.5538, 5701.194
874.0359, 5955.188
874.5181, 6225.586
875.0002, 6528.256
875.4823, 6822.097
875.9644, 7205.154
876.4465, 7606.712
876.9286, 8013.221
877.4108, 8421.152
877.8929, 8816.742
878.3750, 9203.457
878.8571, 9628.081
879.3392, 10139.32
879.8214, 10676.27
880.3035, 11195.44
880.7856, 11706.02
881.2677, 12220.76
881.7498, 12744.54
882.2319, 13280.03
882.7141, 13835.43
883.1962, 14384.52
883.6783, 14878.09
884.1604, 15320.55
884.6425, 15765.92
885.1246, 16224.57
885.6068, 16585.68
886.0889, 16788.87
886.5710, 16867.79
887.0531, 16889.09
887.5352, 16864.85
888.0173, 16712.42
888.4995, 16415.66
888.9816, 16010.88
889.4637, 15474.39
889.9458, 14859.88
890.4279, 14211.63
890.9100, 13529.99
891.3922, 12825.31
891.8743, 12088.63
892.3564, 11338.96
892.8385, 10550.86
893.3206, 9776.292
893.8027, 9056.735
894.2849, 8391.651
894.7670, 7769.199
895.2491, 7181.694
895.7312, 6638.032
896.2133, 6143.937
896.6954, 5694.551
897.1776, 5302.301
897.6597, 4953.008
898.1418, 4610.944
898.6239, 4258.966
899.1060, 3920.647
899.5881, 3617.517
900.0703, 3347.213
900.5524, 3091.577
901.0345, 2850.488
901.5166, 2635.445
901.9987, 2450.630
902.4808, 2286.874
902.9630, 2141.588
903.4451, 2009.354
903.9272, 1866.968
904.4093, 1702.767
904.8914, 1550.985
905.3735, 1404.445
905.8557, 1281.375
906.3378, 1201.380
906.8199, 1143.063
907.3020, 1078.377
907.7841, 1004.142
908.2662, 930.3481
908.7484, 851.5786
909.2305, 782.3301
909.7126, 742.1328
910.1947, 707.4341
910.6768, 645.0146
911.1589, 558.0547
911.6411, 480.4253
912.1232, 431.8237
912.6053, 396.1294
913.0874, 361.9668
913.5695, 327.5532
914.0516, 284.3877
914.5338, 236.3633
915.0159, 204.6401
915.4980, 199.2539
915.9801, 200.2554
916.4622, 178.7715
916.9443, 138.6113
917.4265, 104.5088
917.9086, 76.78760
918.3907, 52.20850
918.8728, 30.41797
919.3549, 7.583008
919.8370, 22.70166
920.3192, 56.94189
920.8013, 68.60107
921.2834, 41.88379
921.7655, 31.68311
922.2476, 61.55322
922.7297, 84.30127
923.2119, 65.71582
923.6940, 25.63379
924.1761, 7.834961
924.6582, 41.15527
925.1403, 35.25537
925.6224, 72.83057
926.1046, 153.4170
926.5867, 116.0156
927.0688, 45.12695
927.5509, 43.42969
928.0330, 109.5566
928.5151, 160.4370
928.9973, 149.9155
929.4794, 127.7627
929.9615, 131.4155
930.4436, 143.9478
930.9257, 147.3325
931.4078, 139.0518
931.8900, 115.3413
932.3721, 74.68213
932.8542, 38.87500
933.3363, 41.58350
933.8184, 65.26074
934.3005, 60.09375
934.7827, 30.55127
935.2648, 9.403809
935.7469, 5.676758
936.2290, 7.979004
936.7111, 7.388672
937.1932, 2.750000
937.6754, 13.05078
938.1575, 42.68750
938.6396, 60.31396
939.1217, 61.53418
939.6038, 55.71680
940.0859, 45.80664
940.5681, 34.38818
941.0502, 26.27686
941.5323, 22.04150
942.0144, 18.20459
942.4965, 15.79834
942.9786, 12.43359
943.4608, 8.629395
943.9429, 2.754395
944.4250, 13.97998
944.9071, 35.44824
945.3892, 33.55615
945.8713, 21.25391
946.3535, 54.87988
946.8356, 27.22900
947.3177, 7.252441
947.7998, 11.14844
948.2819, 4.250488
948.7640, 16.12939
949.2462, 18.99902
949.7283, 21.34473
950.2104, 34.96631
950.6925, 43.59229
951.1746, 24.54736
951.6567, 5.706543
952.1389, 21.11816
952.6210, 19.05029
953.1031, 8.470215
953.5852, 6.783691
954.0673, 20.36523
954.5494, 16.55615
955.0316, 38.03613
955.5137, 23.82275
955.9958, 66.23535
956.4779, 98.65625
956.9600, 108.2383
957.4421, 108.0142
957.9243, 111.5171
958.4064, 118.1265
958.8885, 120.9878
959.3706, 118.7271
959.8527, 145.7529
960.3348, 217.3291
960.8170, 271.2866
961.2991, 261.2480
961.7812, 214.8511
962.2633, 197.5356
962.7454, 217.8765
963.2275, 227.1421
963.7097, 214.6196
964.1918, 211.9707
964.6739, 234.1924
965.1560, 265.6855
965.6381, 294.5752
966.1202, 319.6685
966.6024, 330.6021
967.0845, 305.9507
967.5666, 299.3584
968.0487, 331.5820
968.5308, 366.6553
969.0129, 386.6636
969.4951, 395.0342
969.9772, 396.2822
970.4593, 390.0933
970.9414, 393.0801
971.4235, 420.2373
971.9056, 446.7104
972.3878, 451.7334
972.8699, 454.9556
973.3520, 488.6953
973.8341, 542.3228
974.3162, 567.1733
974.7983, 534.0952
975.2805, 502.2231
975.7626, 523.3081
976.2447, 564.4058
976.7268, 586.2822
977.2089, 595.6152
977.6910, 615.2998
978.1732, 650.5391
978.6553, 688.4390
979.1374, 723.0625
979.6195, 748.5874
980.1016, 749.8774
980.5837, 734.9658
981.0659, 729.9590
981.5480, 736.9878
982.0301, 738.8013
982.5122, 726.0044
982.9943, 715.8257
983.4764, 736.7222
983.9586, 779.0386
984.4407, 801.8013
984.9228, 807.2700
985.4049, 804.9204
985.8870, 792.9976
986.3691, 777.0962
986.8513, 764.2607
987.3334, 756.0029
987.8155, 752.1138
988.2976, 757.9180
988.7797, 760.7915
989.2618, 784.7070
989.7440, 811.9497
990.2261, 843.8550
990.7082, 868.8730
991.1903, 864.2622
991.6724, 830.6016
992.1545, 825.8662
992.6367, 871.0566
993.1188, 905.9141
993.6009, 913.1909
994.0830, 919.0742
994.5651, 940.2246
995.0472, 970.6167
995.5294, 994.7080
996.0115, 1004.768
996.4936, 1040.888
996.9757, 1130.807
997.4578, 1214.290
997.9399, 1294.005
998.4221, 1345.562
998.9042, 1329.210
999.3863, 1265.792
999.8684, 1231.799
1000.351, 1253.261
1000.833, 1275.721
1001.315, 1281.802
1001.797, 1286.879
1002.279, 1304.738
1002.761, 1323.525
1003.243, 1333.010
1003.725, 1333.789
1004.207, 1314.805
1004.690, 1253.616
1005.172, 1189.290
1005.654, 1150.546
1006.136, 1121.576
1006.618, 1092.463
1007.100, 1056.155
1007.582, 998.9355
1008.064, 918.0205
1008.547, 838.6128
1009.029, 778.1880
1009.511, 727.2783
1009.993, 679.8306
1010.475, 637.0566
1010.957, 604.2871
1011.439, 577.6523
1011.921, 537.9233
1012.403, 473.1641
1012.886, 409.4209
1013.368, 375.2734
1013.850, 359.9355
1014.332, 342.3110
1014.814, 319.9902
1015.296, 284.6387
1015.778, 237.7549
1016.260, 203.9810
1016.742, 204.3862
1017.225, 218.6143
1017.707, 209.2886
1018.189, 184.5264
1018.671, 177.8169
1019.153, 188.5137
1019.635, 189.4814
1020.117, 170.6953
1020.599, 149.7578
1021.082, 146.8916
1021.564, 153.5215
1022.046, 136.3135
1022.528, 97.89746
1023.010, 79.31641
1023.492, 86.64600
1023.974, 90.79492
1024.456, 76.38623
1024.938, 54.61670
1025.421, 40.80420
1025.903, 34.95703
1026.385, 38.13574
1026.867, 51.53174
1027.349, 62.90088
1027.831, 69.77295
1028.313, 75.29785
1028.795, 82.53027
1029.278, 87.94312
1029.760, 81.49854
1030.242, 60.01611
1030.724, 56.00513
1031.206, 78.60864
1031.688, 85.55005
1032.170, 59.15356
1032.652, 26.95898
1033.135, 11.47119
1033.617, 10.44043
1034.099, 16.99609
1034.581, 38.64307
1035.063, 44.80078
1035.545, 25.66992
1036.027, 10.53101
1036.509, 10.65796
1036.991, 18.47632
1037.474, 27.77075
1037.956, 37.94604
1038.438, 42.75879
1038.920, 40.12598
1039.402, 35.69067
1039.884, 20.49658
1040.366, 16.41089
1040.848, 49.14575
1041.330, 87.84668
1041.813, 83.51025
1042.295, 32.90430
1042.777, 9.333984
1043.259, 40.17212
1043.741, 57.65967
1044.223, 44.65088
1044.705, 28.24170
1045.187, 22.23853
1045.670, 23.01172
1046.152, 25.67700
1046.634, 31.23901
1047.116, 29.44775
1047.598, 5.100342
1048.080, 6.952637
1048.562, 15.86841
1049.044, 39.62354
1049.526, 35.69629
1050.009, 15.35522
1050.491, 6.616455
1050.973, 14.81299
1051.455, 23.63330
1051.937, 38.35278
1052.419, 43.15894
1052.901, 14.03833
1053.383, 11.96338
1053.865, 9.802734
1054.348, 62.10327
1054.830, 85.51611
1055.312, 60.07764
1055.794, 35.82446
1056.276, 23.20898
1056.758, 16.60059
1057.240, 16.70239
1057.722, 19.13940
1058.205, 17.40210
1058.687, 13.51831
1059.169, 19.66260
1059.651, 51.13379
1060.133, 62.93726
1060.615, 19.18140
1061.097, 24.27686
1061.579, 36.60645
1062.062, 28.53296
1062.544, 9.578613
1063.026, 15.57227
1063.508, 33.19873
1063.990, 37.11865
1064.472, 36.20728
1064.954, 26.69092
1065.436, 20.82666
1065.918, 30.42114
1066.401, 47.29883
1066.883, 62.29858
1067.365, 72.73828
1067.847, 72.26001
1068.329, 48.73486
1068.811, 28.98340
1069.293, 26.94043
1069.775, 31.02368
1070.257, 31.84009
1070.740, 32.67871
1071.222, 42.70728
1071.704, 62.27051
1072.186, 75.27759
1072.668, 77.04907
1073.150, 68.26660
1073.632, 29.08228
1074.114, 2.147949
1074.597, 19.29517
1075.079, 68.77246
1075.561, 97.10400
1076.043, 94.64526
1076.525, 93.10083
1077.007, 116.5591
1077.489, 131.2478
1077.971, 104.9221
1078.453, 75.65259
1078.936, 87.41626
1079.418, 120.4634
1079.900, 124.7725
1080.382, 88.90942
1080.864, 67.09277
1081.346, 103.7405
1081.828, 136.1135
1082.310, 104.1167
1082.792, 74.94507
1083.275, 144.3164
1083.757, 260.1116
1084.239, 291.7825
1084.721, 205.2852
1085.203, 121.8672
1085.685, 86.51978
1086.167, 76.82739
1086.649, 96.48779
1087.131, 122.9429
1087.614, 138.2537
1088.096, 141.9177
1088.578, 136.8828
1089.060, 123.5747
1089.542, 112.4819
1090.024, 103.8889
1090.506, 102.3489
1090.988, 119.5193
1091.471, 137.9895
1091.953, 136.4270
1092.435, 123.4912
1092.917, 124.3816
1093.399, 146.5576
1093.881, 160.3167
1094.363, 146.1973
1094.845, 134.0024
1095.328, 139.0698
1095.810, 151.4602
1096.292, 172.1650
1096.774, 189.9407
1097.256, 174.6592
1097.738, 113.5110
1098.220, 72.59619
1098.702, 84.90039
1099.184, 107.2957
1099.667, 132.0449
1100.149, 148.9209
1100.631, 142.5813
1101.113, 123.9924
1101.595, 116.6064
1102.077, 124.0259
1102.559, 144.3977
1103.041, 207.6504
1103.523, 244.6985
1104.006, 201.1431
1104.488, 147.0244
1104.970, 148.5388
1105.452, 184.2456
1105.934, 192.6482
1106.416, 159.7385
1106.898, 139.7185
1107.380, 156.9470
1107.863, 167.5112
1108.345, 151.7595
1108.827, 130.9043
1109.309, 119.2976
1109.791, 115.5615
1110.273, 113.8904
1110.755, 112.2622
1111.237, 118.1980
1111.719, 142.6965
1112.202, 163.7791
1112.684, 181.2141
1113.166, 189.5696
1113.648, 183.2297
1114.130, 165.7927
1114.612, 143.0068
1115.094, 111.1414
1115.576, 92.52100
1116.058, 101.5671
1116.541, 101.3323
1117.023, 73.16309
1117.505, 49.71460
1117.987, 57.35889
1118.469, 79.61572
1118.951, 80.86938
1119.433, 56.92822
1119.915, 51.73560
1120.398, 80.09912
1120.880, 96.97192
1121.362, 86.68896
1121.844, 77.26611
1122.326, 89.46997
1122.808, 108.6128
1123.290, 107.2495
1123.772, 84.12744
1124.255, 69.92163
1124.737, 67.37256
1125.219, 65.24023
1125.701, 61.90845
1126.183, 58.49243
1126.665, 55.79004
1127.147, 51.63696
1127.629, 34.20679
1128.111, 8.011230
1128.594, 75.50806
1129.076, 264.3386
1129.558, 359.9927
1130.040, 323.8582
1130.522, 252.0925
1131.004, 186.9036
1131.486, 129.9407
1131.968, 82.10767
1132.450, 46.18164
1132.933, 46.81689
1133.415, 83.38818
1133.897, 82.13916
1134.379, 34.23218
1134.861, 0.9025880
1135.343, 2.845947
1135.825, 19.87988
1136.307, 22.43604
1136.790, 16.07910
1137.272, 15.26196
1137.754, 19.96777
1138.236, 35.09424
1138.718, 58.03394
1139.200, 62.51587
1139.682, 40.29639
1140.164, 19.38428
1140.646, 26.76245
1141.129, 46.16675
1141.611, 49.18188
1142.093, 40.64429
1142.575, 30.67773
1143.057, 21.06177
1143.539, 15.12061
1144.021, 13.28247
1144.503, 12.12646
1144.985, 9.742920
1145.468, 5.315918
1145.950, 6.063721
1146.432, 17.37036
1146.914, 17.09399
1147.396, 8.329346
1147.878, 4.605713
1148.360, 18.16870
1148.842, 22.43970
1149.325, 10.49292
1149.807, 3.941162
1150.289, 15.52344
1150.771, 19.20654
1151.253, 3.822021
1151.735, 18.67212
1152.217, 31.11987
1152.699, 33.87769
1153.182, 39.57031
1153.664, 55.67578
1154.146, 57.10718
1154.628, 11.77075
1155.110, 27.40747
1155.592, 26.12769
1156.074, 7.796143
1156.556, 7.954346
1157.038, 19.77100
1157.521, 31.62842
1158.003, 45.48584
1158.485, 50.07275
1158.967, 28.28003
1159.449, 17.16724
1159.931, 44.88452
1160.413, 68.87720
1160.895, 53.27368
1161.377, 17.12378
1161.860, 3.458984
1162.342, 6.690430
1162.824, 6.819336
1163.306, 3.462402
1163.788, 2.384277
1164.270, 10.01367
1164.752, 21.91431
1165.234, 45.00293
1165.717, 65.75586
1166.199, 64.85254
1166.681, 45.09497
1167.163, 32.72412
1167.645, 30.81348
1168.127, 19.38159
1168.609, 8.661133
1169.091, 17.68164
1169.573, 9.330566
1170.056, 43.89062
1170.538, 58.55884
1171.020, 58.90430
1171.502, 60.20801
1171.984, 62.42871
1172.466, 66.09863
1172.948, 71.02661
1173.430, 73.63550
1173.912, 72.97754
1174.395, 69.86279
1174.877, 64.54126
1175.359, 58.96606
1175.841, 57.29028
1176.323, 57.48657
1176.805, 49.64648
1177.287, 39.17358
1177.769, 47.69043
1178.252, 73.35229
1178.734, 89.10303
1179.216, 82.04517
1179.698, 71.06079
1180.180, 71.22754
1180.662, 79.36353
1181.144, 100.4314
1181.626, 121.4551
1182.109, 118.9688
1182.591, 101.1479
1183.073, 92.65723
1183.555, 99.89746
1184.037, 110.2734
1184.519, 121.8853
1185.001, 128.7104
1185.483, 126.3787
1185.965, 119.3655
1186.448, 98.75928
1186.930, 82.70972
1187.412, 109.7107
1187.894, 174.3472
1188.376, 201.9478
1188.858, 152.8862
1189.340, 113.9395
1189.822, 98.91260
1190.304, 92.80640
1190.787, 94.04443
1191.269, 98.11865
1191.751, 100.9177
1192.233, 104.2478
1192.715, 112.8169
1193.197, 113.3606
1193.679, 113.4216
1194.161, 121.4741
1194.644, 114.4829
1195.126, 124.2012
1195.608, 136.3462
1196.090, 144.5298
1196.572, 142.2625
1197.054, 113.0940
1197.536, 63.90967
1198.018, 51.67407
1198.500, 74.94385
1198.983, 99.30371
1199.465, 119.8157
1199.947, 128.5874
1200.429, 122.4634
1200.911, 109.9255
1201.393, 98.98438
1201.875, 91.87402
1202.357, 93.13428
1202.839, 98.11206
1203.322, 96.99585
1203.804, 92.68848
1204.286, 93.28101
1204.768, 99.60522
1205.250, 102.3137
1205.732, 96.44531
1206.214, 93.03662
1206.696, 99.46313
1207.179, 109.8037
1207.661, 121.5347
1208.143, 132.1104
1208.625, 142.4580
1209.107, 148.2432
1209.589, 134.8540
1210.071, 93.99609
1210.553, 72.54956
1211.036, 101.7510
1211.518, 127.1118
1212.000, 134.2056
1212.482, 129.4414
1212.964, 112.9297
1213.446, 90.59766
1213.928, 70.56616
1214.410, 53.00439
1214.892, 43.75586
1215.375, 47.08032
1215.857, 45.73608
1216.339, 32.85864
1216.821, 35.89111
1217.303, 71.16431
1217.785, 103.1331
1218.267, 97.59351
1218.749, 70.94336
1219.231, 66.66333
1219.714, 82.34570
1220.196, 79.69653
1220.678, 60.48389
1221.160, 49.06055
1221.642, 49.30005
1222.124, 46.21973
1222.606, 31.59619
1223.088, 23.60815
1223.571, 49.01929
1224.053, 87.55444
1224.535, 114.1328
1225.017, 126.7915
1225.499, 114.8303
1225.981, 87.63110
1226.463, 67.76245
1226.945, 60.69385
1227.427, 58.85303
1227.910, 60.81152
1228.392, 62.08618
1228.874, 63.70996
1229.356, 59.98779
1229.838, 35.29126
1230.320, 12.08569
1230.802, 24.87939
1231.284, 62.07886
1231.766, 75.78491
1232.249, 54.51929
1232.731, 33.65942
1233.213, 8.040039
1233.695, 5.619873
1234.177, 1.993164
1234.659, 10.54614
1235.141, 32.36108
1235.623, 52.02051
1236.106, 50.55054
1236.588, 61.50366
1237.070, 64.77612
1237.552, 57.43726
1238.034, 61.93286
1238.516, 45.81982
1238.998, 30.70288
1239.480, 23.34351
1239.963, 21.12598
1240.445, 22.58594
1240.927, 25.39697
1241.409, 26.01660
1241.891, 25.67773
1242.373, 25.20557
1242.855, 26.26245
1243.337, 35.54883
1243.819, 49.41113
1244.302, 53.46021
1244.784, 42.07446
1245.266, 31.23975
1245.748, 27.43994
1246.230, 26.99756
1246.712, 29.40918
1247.194, 32.97681
1247.676, 41.75049
1248.158, 47.57837
1248.641, 32.28076
1249.123, 0.2216800
1249.605, 7.695801
1250.087, 22.51294
1250.569, 47.86084
1251.051, 69.93042
1251.533, 83.00659
1252.015, 83.81006
1252.498, 57.18140
1252.980, 46.82788
1253.462, 33.61938
1253.944, 20.78931
1254.426, 10.93018
1254.908, 0.0000000E+00
##END=



