##NAMES=Andradite
##RRUFFID=R070722
##IDEAL CHEMISTRY=Ca_3_Fe^3+^_2_(SiO_4_)_3_
##LOCALITY=Otjosondu, Namibia
##OWNER=RRUFF
##SOURCE=Royal Ontario Museum
##DESCRIPTION=Dark red-brown to orange semi-transparent druse of crystals associated with quartz.
##STATUS=The identification of this mineral is confirmed by single-crystal X-ray diffraction and chemical analysis.
##URL=rruff.info/R070722
##MEASURED CHEMISTRY=(Ca_1.77_Mn^2+^_1.27_Mg_0.02_)_Σ=3.06_(Fe^3+^_1.58_Al^3+^_0.38_Ti_0.01_)_Σ=1.97_(SiO_4_)_3_
161.1072, 0.0000000E+00
161.5893, 31.74902
162.0714, 81.33984
162.5536, 132.7988
163.0357, 166.8164
163.5178, 171.8506
163.9999, 234.8184
164.4820, 213.0498
164.9641, 184.0039
165.4463, 147.2744
165.9284, 74.36719
166.4105, 1.025391
166.8926, 34.18652
167.3747, 19.23633
167.8568, 89.12109
168.3390, 127.0225
168.8211, 128.9531
169.3032, 123.0322
169.7853, 124.8037
170.2674, 130.9482
170.7495, 135.8408
171.2317, 136.1025
171.7138, 134.2148
172.1959, 131.7568
172.6780, 128.1387
173.1601, 127.0332
173.6422, 139.0791
174.1244, 158.7139
174.6065, 167.0518
175.0886, 140.3730
175.5707, 98.82324
176.0528, 70.46191
176.5349, 58.79297
177.0171, 65.51953
177.4992, 109.8721
177.9813, 185.5996
178.4634, 244.2080
178.9455, 226.7559
179.4276, 162.8271
179.9098, 121.1240
180.3919, 135.0791
180.8740, 176.7607
181.3561, 203.3496
181.8382, 214.2646
182.3203, 213.3389
182.8025, 197.8018
183.2846, 171.4814
183.7667, 149.2734
184.2488, 137.7764
184.7309, 135.6914
185.2130, 131.9395
185.6951, 121.2061
186.1773, 131.5195
186.6594, 242.3711
187.1415, 439.6211
187.6236, 574.5850
188.1057, 524.6641
188.5878, 330.2637
189.0700, 183.6475
189.5521, 107.7441
190.0342, 81.15137
190.5163, 72.90527
190.9984, 83.01660
191.4805, 99.44922
191.9627, 111.0586
192.4448, 118.7227
192.9269, 138.4570
193.4090, 178.4990
193.8911, 228.8389
194.3732, 256.1904
194.8554, 257.4541
195.3375, 255.6465
195.8196, 282.2754
196.3017, 338.8457
196.7838, 366.0088
197.2659, 335.1055
197.7481, 258.9473
198.2302, 226.0859
198.7123, 245.4932
199.1944, 283.5518
199.6765, 300.4502
200.1586, 294.2705
200.6408, 284.8330
201.1229, 276.1895
201.6050, 268.1895
202.0871, 270.9561
202.5692, 287.3672
203.0513, 309.6357
203.5335, 323.3008
204.0156, 325.4346
204.4977, 330.0449
204.9798, 340.6240
205.4619, 355.3008
205.9440, 390.0195
206.4262, 455.2256
206.9083, 532.9512
207.3904, 573.1982
207.8725, 563.6572
208.3546, 549.8418
208.8367, 566.2861
209.3189, 618.7646
209.8010, 653.7305
210.2831, 658.3770
210.7652, 624.9941
211.2473, 616.4414
211.7294, 648.0088
212.2116, 690.5918
212.6937, 717.8389
213.1758, 735.4902
213.6579, 771.4912
214.1400, 820.7031
214.6221, 871.3389
215.1043, 913.7275
215.5864, 951.1396
216.0685, 980.9121
216.5506, 994.7070
217.0327, 980.1846
217.5148, 988.3750
217.9970, 1032.558
218.4791, 1115.889
218.9612, 1206.776
219.4433, 1319.372
219.9254, 1434.969
220.4075, 1526.759
220.8897, 1590.643
221.3718, 1635.977
221.8539, 1659.748
222.3360, 1656.306
222.8181, 1659.989
223.3002, 1669.036
223.7824, 1685.995
224.2645, 1717.802
224.7466, 1780.099
225.2287, 1833.045
225.7108, 1853.247
226.1929, 1822.840
226.6750, 1810.863
227.1572, 1829.225
227.6393, 1862.842
228.1214, 1871.745
228.6035, 1845.453
229.0856, 1810.065
229.5677, 1778.820
230.0499, 1758.906
230.5320, 1726.385
231.0141, 1673.634
231.4962, 1607.282
231.9783, 1555.831
232.4604, 1533.157
232.9426, 1507.812
233.4247, 1458.703
233.9068, 1372.300
234.3889, 1291.152
234.8710, 1219.110
235.3531, 1155.394
235.8353, 1098.390
236.3174, 1052.550
236.7995, 1008.765
237.2816, 960.4727
237.7637, 907.0654
238.2458, 850.7607
238.7280, 792.1494
239.2101, 731.2510
239.6922, 664.1348
240.1743, 577.3125
240.6564, 497.4932
241.1385, 452.6377
241.6207, 466.1738
242.1028, 471.6357
242.5849, 452.1885
243.0670, 404.6143
243.5491, 372.1113
244.0313, 358.5771
244.5134, 356.8125
244.9955, 361.9072
245.4776, 389.8389
245.9597, 396.2178
246.4418, 361.5547
246.9240, 273.3281
247.4061, 219.0488
247.8882, 215.3086
248.3703, 234.0752
248.8524, 233.4189
249.3345, 198.0303
249.8167, 169.9424
250.2988, 166.4111
250.7809, 199.8809
251.2630, 206.3604
251.7451, 172.2607
252.2272, 118.8711
252.7094, 85.40430
253.1915, 81.93750
253.6736, 80.77344
254.1557, 71.89062
254.6378, 52.78223
255.1199, 32.93652
255.6021, 9.263672
256.0842, 13.54590
256.5663, 21.82910
257.0484, 1.725586
257.5305, 8.938477
258.0126, 12.94629
258.4948, 92.56152
258.9769, 131.0576
259.4590, 112.0391
259.9411, 56.74512
260.4232, 22.11035
260.9053, 12.90918
261.3875, 15.18750
261.8696, 26.44434
262.3517, 56.23438
262.8338, 60.95117
263.3159, 23.67773
263.7980, 36.60449
264.2802, 49.43262
264.7623, 4.099609
265.2444, 67.39844
265.7265, 111.9873
266.2086, 139.8984
266.6907, 137.9639
267.1729, 95.39941
267.6550, 24.58789
268.1371, 31.34473
268.6192, 72.63867
269.1013, 96.67871
269.5834, 96.41309
270.0656, 65.39258
270.5477, 39.95117
271.0298, 26.44043
271.5119, 21.57227
271.9940, 10.41602
272.4761, 9.133789
272.9583, 28.79395
273.4404, 40.63867
273.9225, 42.09863
274.4046, 50.68457
274.8867, 75.81738
275.3688, 109.0723
275.8510, 106.7617
276.3331, 59.29785
276.8152, 4.855469
277.2973, 22.17480
277.7794, 18.50684
278.2615, 19.94238
278.7437, 36.35938
279.2258, 62.71973
279.7079, 74.14551
280.1900, 67.77539
280.6721, 57.84961
281.1542, 57.90918
281.6364, 68.53223
282.1185, 77.96387
282.6006, 83.26367
283.0827, 85.76855
283.5648, 89.95703
284.0469, 95.58984
284.5291, 104.5273
285.0112, 116.1504
285.4933, 130.6660
285.9754, 157.1572
286.4575, 202.0625
286.9396, 259.0322
287.4217, 306.1377
287.9038, 342.6465
288.3860, 372.6504
288.8681, 393.6895
289.3502, 407.4824
289.8323, 434.3105
290.3144, 481.8545
290.7965, 545.1621
291.2787, 617.8887
291.7608, 702.2168
292.2429, 774.0781
292.7250, 799.3975
293.2071, 788.1602
293.6892, 789.6807
294.1714, 822.8574
294.6535, 877.8838
295.1356, 936.1826
295.6177, 998.4365
296.0998, 1062.068
296.5819, 1123.998
297.0641, 1186.294
297.5462, 1253.827
298.0283, 1328.119
298.5104, 1408.710
298.9925, 1507.111
299.4746, 1624.020
299.9568, 1720.197
300.4389, 1738.552
300.9210, 1709.456
301.4031, 1704.604
301.8852, 1761.340
302.3673, 1848.241
302.8495, 1931.771
303.3316, 2010.816
303.8137, 2081.417
304.2958, 2136.677
304.7779, 2180.708
305.2600, 2219.807
305.7422, 2258.601
306.2243, 2292.001
306.7064, 2308.148
307.1885, 2308.460
307.6706, 2317.347
308.1527, 2375.521
308.6349, 2448.221
309.1170, 2486.078
309.5991, 2434.979
310.0812, 2369.635
310.5633, 2351.259
311.0454, 2377.056
311.5276, 2397.866
312.0097, 2383.532
312.4918, 2348.708
312.9739, 2309.464
313.4560, 2272.164
313.9381, 2230.303
314.4203, 2173.709
314.9024, 2105.522
315.3845, 2055.304
315.8666, 2050.475
316.3487, 2059.003
316.8308, 2055.745
317.3130, 2022.530
317.7951, 1993.524
318.2772, 1978.076
318.7593, 1974.642
319.2414, 1980.825
319.7235, 2006.886
320.2057, 2035.120
320.6878, 2053.684
321.1699, 2054.120
321.6520, 2054.421
322.1341, 2046.619
322.6162, 2033.865
323.0984, 2048.867
323.5805, 2130.789
324.0626, 2226.181
324.5447, 2300.189
325.0268, 2327.921
325.5089, 2362.680
325.9911, 2411.719
326.4732, 2471.852
326.9553, 2527.602
327.4374, 2562.805
327.9195, 2602.929
328.4016, 2663.223
328.8838, 2776.298
329.3659, 2867.474
329.8480, 2923.061
330.3301, 2948.301
330.8122, 2980.786
331.2943, 3021.968
331.7765, 3069.848
332.2586, 3124.774
332.7407, 3200.963
333.2228, 3254.483
333.7049, 3273.675
334.1870, 3272.713
334.6692, 3302.006
335.1513, 3374.465
335.6334, 3451.918
336.1155, 3509.683
336.5976, 3536.259
337.0797, 3582.915
337.5619, 3658.432
338.0440, 3752.922
338.5261, 3838.512
339.0082, 3916.932
339.4903, 3980.071
339.9724, 4011.913
340.4546, 4005.395
340.9367, 4031.217
341.4188, 4096.048
341.9009, 4191.829
342.3830, 4307.191
342.8651, 4443.352
343.3473, 4585.544
343.8294, 4723.812
344.3115, 4860.471
344.7936, 5002.691
345.2757, 5151.396
345.7578, 5309.291
346.2400, 5481.908
346.7221, 5667.737
347.2042, 5872.871
347.6863, 6108.328
348.1684, 6366.922
348.6505, 6624.367
349.1327, 6880.305
349.6148, 7147.361
350.0969, 7443.249
350.5790, 7765.893
351.0611, 8103.400
351.5432, 8451.442
352.0254, 8808.098
352.5075, 9176.360
352.9896, 9553.919
353.4717, 9940.404
353.9538, 10320.20
354.4359, 10709.41
354.9181, 11128.42
355.4002, 11615.19
355.8823, 12119.52
356.3644, 12587.61
356.8465, 13018.49
357.3286, 13459.08
357.8108, 13938.84
358.2929, 14451.64
358.7750, 14998.84
359.2571, 15604.01
359.7392, 16225.39
360.2213, 16849.39
360.7035, 17474.29
361.1856, 18081.94
361.6677, 18686.33
362.1498, 19256.55
362.6319, 19772.63
363.1140, 20236.53
363.5962, 20634.76
364.0783, 20990.99
364.5604, 21293.77
365.0425, 21458.83
365.5246, 21414.82
366.0067, 21259.99
366.4889, 21056.26
366.9710, 20895.12
367.4531, 20589.08
367.9352, 20072.70
368.4173, 19380.93
368.8994, 18669.13
369.3815, 17965.41
369.8636, 17230.82
370.3458, 16454.50
370.8279, 15590.22
371.3100, 14742.95
371.7921, 13902.27
372.2742, 13079.97
372.7563, 12301.89
373.2385, 11582.76
373.7206, 10893.50
374.2027, 10228.26
374.6848, 9588.306
375.1669, 8972.714
375.6490, 8381.742
376.1312, 7808.458
376.6133, 7270.086
377.0954, 6734.149
377.5775, 6229.443
378.0596, 5748.606
378.5417, 5300.592
379.0239, 4919.047
379.5060, 4615.291
379.9881, 4354.137
380.4702, 4102.100
380.9523, 3857.248
381.4344, 3626.159
381.9166, 3406.943
382.3987, 3202.963
382.8808, 3013.573
383.3629, 2840.413
383.8450, 2677.896
384.3271, 2529.341
384.8093, 2389.020
385.2914, 2241.898
385.7735, 2073.972
386.2556, 1907.645
386.7377, 1787.941
387.2198, 1709.358
387.7020, 1625.248
388.1841, 1485.691
388.6662, 1327.490
389.1483, 1199.469
389.6304, 1124.029
390.1125, 1067.140
390.5947, 1004.865
391.0768, 939.8945
391.5589, 881.8184
392.0410, 840.5410
392.5231, 805.2637
393.0052, 766.9375
393.4874, 721.2090
393.9695, 679.8594
394.4516, 655.2070
394.9337, 636.7129
395.4158, 605.1465
395.8979, 541.9893
396.3801, 475.3076
396.8622, 415.8135
397.3443, 364.8359
397.8264, 318.0049
398.3085, 261.5713
398.7906, 213.4551
399.2728, 196.4844
399.7549, 254.5000
400.2370, 295.0713
400.7191, 300.4492
401.2012, 269.3115
401.6833, 222.7500
402.1655, 143.1318
402.6476, 66.62109
403.1297, 27.37305
403.6118, 42.14160
404.0939, 56.20508
404.5760, 63.75293
405.0582, 62.04688
405.5403, 44.48047
406.0224, 4.296875
406.5045, 27.69824
406.9866, 22.65820
407.4688, 22.53418
407.9509, 48.52539
408.4330, 44.44922
408.9151, 22.41895
409.3972, 4.935547
409.8793, 7.271484
410.3615, 10.08984
410.8436, 6.764648
411.3257, 35.53320
411.8078, 48.07812
412.2899, 40.99414
412.7720, 25.92969
413.2542, 12.03906
413.7363, 0.9121090
414.2184, 3.057617
414.7005, 13.87793
415.1826, 33.31543
415.6647, 30.48926
416.1469, 4.416992
416.6290, 24.83789
417.1111, 45.26953
417.5932, 59.87109
418.0753, 71.87793
418.5574, 86.37988
419.0396, 95.89258
419.5217, 97.44141
420.0038, 91.14844
420.4859, 77.33984
420.9680, 42.45020
421.4501, 8.178711
421.9323, 9.836914
422.4144, 2.290039
422.8965, 11.03516
423.3786, 27.85645
423.8607, 47.48047
424.3428, 68.57910
424.8250, 108.1533
425.3071, 132.9834
425.7892, 127.3721
426.2713, 71.81641
426.7534, 38.44922
427.2355, 42.91211
427.7177, 60.00684
428.1998, 48.94434
428.6819, 10.00293
429.1640, 50.83691
429.6461, 48.52148
430.1282, 3.833008
430.6104, 24.04590
431.0925, 34.16602
431.5746, 31.47559
432.0567, 15.17188
432.5388, 15.18359
433.0209, 34.63574
433.5031, 34.36816
433.9852, 22.93359
434.4673, 18.98633
434.9494, 22.72754
435.4315, 35.64746
435.9136, 72.19922
436.3958, 119.1074
436.8779, 139.6611
437.3600, 124.2715
437.8421, 94.85742
438.3242, 66.53906
438.8063, 42.49805
439.2885, 31.42871
439.7706, 48.18262
440.2527, 73.72070
440.7348, 90.04492
441.2169, 94.88477
441.6990, 99.28027
442.1812, 107.2412
442.6633, 118.6768
443.1454, 133.6904
443.6275, 167.4580
444.1096, 189.5820
444.5917, 176.0020
445.0739, 130.6582
445.5560, 111.2012
446.0381, 151.4697
446.5202, 205.7041
447.0023, 247.1074
447.4844, 273.1562
447.9666, 287.3711
448.4487, 284.3828
448.9308, 270.3613
449.4129, 261.6660
449.8950, 260.3369
450.3771, 261.5146
450.8592, 262.8389
451.3413, 263.3398
451.8235, 269.8389
452.3056, 282.4854
452.7877, 301.1396
453.2698, 336.3623
453.7519, 392.1660
454.2340, 412.5371
454.7162, 362.1992
455.1983, 268.0732
455.6804, 229.6631
456.1625, 249.2588
456.6446, 282.7324
457.1267, 309.0527
457.6089, 320.4766
458.0910, 289.5146
458.5731, 190.5625
459.0552, 84.14746
459.5373, 54.93262
460.0194, 82.79492
460.5016, 100.6289
460.9837, 50.77148
461.4658, 14.89551
461.9479, 47.26855
462.4300, 35.52246
462.9121, 20.12207
463.3943, 20.62695
463.8764, 29.84473
464.3585, 39.93848
464.8406, 53.13281
465.3227, 57.29590
465.8048, 50.39453
466.2870, 32.36035
466.7691, 6.181641
467.2512, 42.46777
467.7333, 88.54199
468.2154, 115.2637
468.6975, 85.28320
469.1797, 102.6953
469.6618, 204.7637
470.1439, 347.0713
470.6260, 401.4150
471.1081, 327.1084
471.5902, 262.3467
472.0724, 276.3984
472.5545, 377.2988
473.0366, 434.1953
473.5187, 435.9258
474.0008, 421.2666
474.4829, 441.4141
474.9651, 493.4375
475.4472, 534.5977
475.9293, 545.0049
476.4114, 541.5059
476.8935, 559.8691
477.3756, 599.3525
477.8578, 645.6055
478.3399, 689.5996
478.8220, 735.0859
479.3041, 782.9434
479.7862, 827.2676
480.2683, 885.0762
480.7505, 993.6973
481.2326, 1125.070
481.7147, 1221.001
482.1968, 1213.050
482.6789, 1199.033
483.1610, 1219.413
483.6432, 1276.522
484.1253, 1397.618
484.6074, 1699.885
485.0895, 2005.665
485.5716, 2164.188
486.0537, 1990.599
486.5359, 1878.827
487.0180, 1873.460
487.5001, 1953.877
487.9822, 2032.705
488.4643, 2119.941
488.9464, 2188.430
489.4286, 2213.253
489.9107, 2176.847
490.3928, 2206.078
490.8749, 2324.439
491.3570, 2465.436
491.8391, 2528.554
492.3213, 2514.104
492.8034, 2492.233
493.2855, 2486.101
493.7676, 2490.873
494.2497, 2497.053
494.7318, 2504.628
495.2140, 2507.091
495.6961, 2506.029
496.1782, 2494.735
496.6603, 2453.551
497.1424, 2355.453
497.6245, 2276.064
498.1067, 2312.730
498.5888, 2413.524
499.0709, 2458.327
499.5530, 2319.078
500.0351, 2170.148
500.5172, 2109.958
500.9994, 2157.876
501.4815, 2212.145
501.9636, 2260.163
502.4457, 2298.831
502.9278, 2325.282
503.4099, 2313.562
503.8921, 2323.062
504.3742, 2365.475
504.8563, 2434.167
505.3384, 2501.314
505.8205, 2567.531
506.3026, 2633.030
506.7848, 2688.793
507.2669, 2727.827
507.7490, 2824.402
508.2311, 2992.834
508.7132, 3187.996
509.1953, 3346.283
509.6775, 3471.615
510.1596, 3617.467
510.6417, 3798.555
511.1238, 4010.375
511.6059, 4249.667
512.0880, 4516.088
512.5701, 4794.260
513.0522, 5065.643
513.5344, 5347.021
514.0165, 5663.245
514.4986, 6026.124
514.9807, 6399.727
515.4628, 6762.705
515.9449, 7122.322
516.4271, 7486.197
516.9092, 7849.877
517.3913, 8229.320
517.8734, 8637.523
518.3555, 9076.467
518.8376, 9509.083
519.3198, 9955.735
519.8019, 10374.75
520.2840, 10746.38
520.7661, 11044.57
521.2482, 11349.99
521.7303, 11720.15
522.2125, 12068.72
522.6946, 12183.82
523.1767, 12033.29
523.6588, 11793.12
524.1409, 11526.19
524.6230, 11232.45
525.1052, 10866.97
525.5873, 10425.38
526.0694, 9938.458
526.5515, 9432.546
527.0336, 8908.318
527.5157, 8364.852
527.9979, 7799.979
528.4800, 7241.900
528.9621, 6723.619
529.4442, 6243.096
529.9263, 5777.606
530.4084, 5307.539
530.8906, 4858.799
531.3727, 4455.596
531.8548, 4097.410
532.3369, 3771.797
532.8190, 3485.223
533.3011, 3222.419
533.7833, 2973.956
534.2654, 2716.674
534.7475, 2497.866
535.2296, 2331.064
535.7117, 2204.559
536.1938, 2078.787
536.6760, 1948.979
537.1581, 1825.617
537.6402, 1712.777
538.1223, 1611.792
538.6044, 1508.752
539.0865, 1397.353
539.5687, 1299.949
540.0508, 1247.698
540.5329, 1235.785
541.0150, 1235.760
541.4971, 1248.091
541.9792, 1259.086
542.4614, 1253.445
542.9435, 1229.561
543.4256, 1179.477
543.9077, 1065.850
544.3898, 942.4043
544.8719, 869.0869
545.3541, 859.1963
545.8362, 843.5508
546.3183, 768.5859
546.8004, 678.1348
547.2825, 619.3770
547.7646, 621.4473
548.2468, 636.3184
548.7289, 672.3584
549.2110, 718.3174
549.6931, 724.4072
550.1752, 656.7871
550.6573, 595.5078
551.1395, 578.2432
551.6216, 616.6016
552.1037, 628.0264
552.5858, 604.9287
553.0679, 572.0488
553.5500, 558.5938
554.0322, 564.0303
554.5143, 569.6025
554.9964, 570.5527
555.4785, 570.0615
555.9606, 582.4258
556.4427, 602.7285
556.9249, 603.2314
557.4070, 549.9521
557.8891, 476.5244
558.3712, 420.4551
558.8533, 386.6768
559.3354, 357.2344
559.8176, 325.6396
560.2997, 291.1113
560.7818, 252.6758
561.2639, 185.4014
561.7460, 142.0029
562.2281, 153.8701
562.7103, 201.8926
563.1924, 213.3711
563.6745, 161.4346
564.1566, 107.8428
564.6387, 75.55957
565.1208, 67.11621
565.6030, 54.51270
566.0851, 37.04297
566.5672, 18.24023
567.0493, 0.1152340
567.5314, 16.61523
568.0135, 26.51367
568.4957, 25.35938
568.9778, 21.87500
569.4599, 32.93945
569.9420, 55.23340
570.4241, 74.32129
570.9063, 85.75391
571.3884, 88.16016
571.8705, 84.59766
572.3526, 74.77441
572.8347, 46.41016
573.3168, 32.87988
573.7990, 119.2148
574.2811, 173.0752
574.7632, 149.5645
575.2453, 148.5615
575.7274, 198.0898
576.2095, 277.6602
576.6917, 347.9307
577.1738, 411.3018
577.6559, 460.2852
578.1380, 483.4834
578.6201, 483.1846
579.1022, 502.1650
579.5844, 550.5117
580.0665, 586.0469
580.5486, 567.8799
581.0307, 503.8926
581.5128, 441.8984
581.9949, 380.8594
582.4771, 342.7109
582.9592, 367.6484
583.4413, 437.5664
583.9234, 507.5107
584.4055, 601.3252
584.8876, 653.8652
585.3698, 585.8770
585.8519, 420.0146
586.3340, 276.5293
586.8161, 178.5928
587.2982, 140.2539
587.7803, 184.5596
588.2625, 367.1533
588.7446, 492.4219
589.2267, 537.4268
589.7088, 532.9014
590.1909, 507.5332
590.6730, 455.1172
591.1552, 396.6953
591.6373, 327.5068
592.1194, 258.0664
592.6015, 223.6807
593.0836, 226.2178
593.5657, 247.3965
594.0479, 288.6680
594.5300, 340.1924
595.0121, 373.9824
595.4942, 389.2891
595.9763, 394.7295
596.4584, 390.4805
596.9406, 382.9609
597.4227, 381.4219
597.9048, 394.6260
598.3869, 403.1416
598.8690, 392.8896
599.3511, 373.2354
599.8333, 361.9375
600.3154, 373.3867
600.7975, 382.8428
601.2796, 381.7666
601.7617, 370.7559
602.2438, 369.5908
602.7260, 387.7324
603.2081, 400.4082
603.6902, 386.5186
604.1723, 342.8252
604.6544, 318.8350
605.1365, 320.1904
605.6187, 332.4678
606.1008, 337.6768
606.5829, 337.6133
607.0650, 339.3271
607.5471, 346.9639
608.0292, 355.3809
608.5114, 361.3594
608.9935, 365.7061
609.4756, 362.9971
609.9577, 349.8779
610.4398, 334.1904
610.9219, 322.5137
611.4041, 316.6221
611.8862, 301.3125
612.3683, 252.6318
612.8504, 206.9424
613.3325, 193.2148
613.8146, 234.7275
614.2968, 261.9980
614.7789, 268.5400
615.2610, 261.7354
615.7431, 255.8555
616.2252, 251.3555
616.7073, 241.1738
617.1895, 217.6299
617.6716, 189.6279
618.1537, 187.9414
618.6358, 209.7119
619.1179, 224.5654
619.6000, 194.0732
620.0822, 154.6855
620.5643, 161.2939
621.0464, 231.4551
621.5285, 283.6982
622.0106, 264.8740
622.4927, 209.0186
622.9749, 151.9492
623.4570, 85.05273
623.9391, 38.87598
624.4212, 22.94043
624.9033, 29.27539
625.3854, 41.66406
625.8676, 66.15918
626.3497, 83.95898
626.8318, 88.14844
627.3139, 79.33203
627.7960, 59.54980
628.2781, 26.07617
628.7603, 3.927734
629.2424, 27.88379
629.7245, 77.61328
630.2066, 100.2637
630.6887, 87.33691
631.1708, 60.40723
631.6530, 29.90332
632.1351, 0.9824220
632.6172, 27.58887
633.0993, 41.65137
633.5814, 57.67480
634.0635, 92.23047
634.5457, 134.7070
635.0278, 144.2520
635.5099, 90.77246
635.9920, 38.43457
636.4741, 3.076172
636.9562, 16.83301
637.4384, 21.14062
637.9205, 4.539063
638.4026, 12.40527
638.8847, 11.46191
639.3668, 5.205078
639.8489, 21.75781
640.3311, 37.57129
640.8132, 49.18555
641.2953, 49.18262
641.7774, 41.38574
642.2595, 34.69238
642.7416, 30.84961
643.2238, 31.69824
643.7059, 42.88770
644.1880, 60.01562
644.6701, 70.58496
645.1522, 69.70312
645.6343, 63.04785
646.1165, 51.02734
646.5986, 32.84766
647.0807, 18.19141
647.5628, 6.555664
648.0449, 0.6093750
648.5270, 3.880859
649.0092, 4.021484
649.4913, 11.94727
649.9734, 50.93457
650.4555, 89.45508
650.9376, 88.01660
651.4197, 57.70020
651.9019, 37.91016
652.3840, 45.84375
652.8661, 65.01562
653.3482, 88.56445
653.8303, 111.3838
654.3124, 118.5205
654.7946, 70.68555
655.2767, 34.38477
655.7588, 52.29102
656.2408, 133.5078
656.7230, 186.2578
657.2051, 198.6279
657.6872, 190.7412
658.1693, 168.9854
658.6514, 125.6309
659.1335, 108.1660
659.6157, 125.5430
660.0978, 150.8477
660.5799, 143.4141
661.0620, 110.3770
661.5441, 91.64746
662.0262, 104.6104
662.5084, 125.4609
662.9905, 120.8809
663.4726, 100.5195
663.9547, 90.11523
664.4368, 128.0068
664.9189, 155.8662
665.4011, 125.3721
665.8832, 38.41406
666.3653, 10.04297
666.8474, 31.60254
667.3295, 82.36426
667.8116, 105.3809
668.2938, 91.07715
668.7759, 91.16602
669.2580, 111.9160
669.7401, 133.2002
670.2222, 130.0469
670.7043, 105.4160
671.1865, 86.68945
671.6686, 80.00977
672.1507, 79.45801
672.6328, 77.70703
673.1149, 76.59570
673.5970, 80.00293
674.0792, 100.9473
674.5613, 117.0947
675.0434, 104.3955
675.5255, 71.33594
676.0076, 62.70703
676.4897, 113.0850
676.9719, 165.5566
677.4540, 203.9775
677.9361, 229.3145
678.4182, 218.4287
678.9003, 153.8447
679.3824, 90.02734
679.8646, 77.63574
680.3467, 111.4668
680.8288, 128.3604
681.3109, 119.2900
681.7930, 108.6064
682.2751, 131.8125
682.7573, 171.7471
683.2394, 195.3857
683.7215, 185.3926
684.2036, 164.9541
684.6857, 142.0654
685.1678, 119.7139
685.6500, 103.0986
686.1321, 86.23535
686.6142, 84.38184
687.0963, 107.3711
687.5784, 149.9443
688.0605, 175.1816
688.5427, 179.5479
689.0248, 177.1543
689.5069, 173.1328
689.9890, 167.6777
690.4711, 173.3984
690.9532, 194.2285
691.4354, 198.2930
691.9175, 121.5234
692.3996, 12.62598
692.8817, 42.15918
693.3638, 8.321289
693.8459, 41.74023
694.3281, 74.08691
694.8102, 93.39941
695.2923, 106.4326
695.7744, 103.1357
696.2565, 107.3691
696.7386, 130.0312
697.2208, 162.0332
697.7029, 172.7266
698.1850, 152.3594
698.6671, 146.1777
699.1492, 185.6367
699.6313, 250.2188
700.1135, 254.7705
700.5956, 201.3682
701.0777, 158.2793
701.5598, 187.1533
702.0419, 244.1582
702.5240, 276.7744
703.0062, 280.7617
703.4883, 278.0635
703.9704, 277.5947
704.4525, 273.7754
704.9346, 262.5732
705.4167, 229.1885
705.8989, 213.9355
706.3810, 221.8359
706.8631, 242.9014
707.3452, 271.4873
707.8273, 312.2051
708.3094, 334.8066
708.7916, 331.7168
709.2737, 313.5459
709.7558, 292.7676
710.2379, 272.5283
710.7200, 264.7578
711.2021, 284.0596
711.6843, 309.6846
712.1664, 319.8516
712.6485, 319.1641
713.1306, 326.9443
713.6127, 365.5674
714.0948, 402.1318
714.5770, 424.9697
715.0591, 434.8906
715.5412, 415.5479
716.0233, 347.2471
716.5054, 284.8408
716.9875, 274.3184
717.4697, 315.2881
717.9518, 324.5615
718.4339, 294.3613
718.9160, 260.3740
719.3981, 262.8809
719.8802, 288.8896
720.3624, 314.4834
720.8445, 337.0303
721.3266, 352.4961
721.8087, 355.3799
722.2908, 350.7529
722.7729, 345.3623
723.2551, 337.4355
723.7372, 330.8057
724.2193, 321.7119
724.7014, 318.4355
725.1835, 336.2256
725.6656, 382.2354
726.1478, 408.2617
726.6299, 392.1855
727.1120, 347.3340
727.5941, 307.2559
728.0762, 272.0615
728.5583, 248.2295
729.0405, 246.1396
729.5226, 253.5664
730.0047, 261.6943
730.4868, 269.9824
730.9689, 271.1514
731.4510, 261.2295
731.9332, 245.4541
732.4153, 226.1152
732.8974, 201.3027
733.3795, 177.7393
733.8616, 153.9668
734.3438, 137.1318
734.8259, 136.2510
735.3080, 150.5830
735.7901, 153.8594
736.2722, 138.0029
736.7543, 125.0830
737.2365, 160.7559
737.7186, 217.7773
738.2007, 238.6270
738.6828, 169.3633
739.1649, 100.3281
739.6470, 80.45898
740.1292, 95.14160
740.6113, 110.2734
741.0934, 133.2793
741.5755, 138.3154
742.0576, 114.2266
742.5397, 68.36523
743.0219, 30.03223
743.5040, 2.219727
743.9861, 18.08594
744.4682, 5.208984
744.9503, 27.61426
745.4324, 57.24609
745.9146, 83.35254
746.3967, 104.7715
746.8788, 130.7285
747.3609, 144.5781
747.8430, 121.3555
748.3251, 50.75781
748.8073, 8.002930
749.2894, 37.78125
749.7715, 79.04004
750.2536, 91.29004
750.7357, 65.36230
751.2178, 44.97852
751.7000, 30.80762
752.1821, 19.77246
752.6642, 9.561523
753.1463, 0.2802730
753.6284, 7.357422
754.1105, 13.32324
754.5927, 16.55273
755.0748, 5.755859
755.5569, 5.583984
756.0390, 3.504883
756.5211, 71.24023
757.0032, 124.4980
757.4854, 140.4414
757.9675, 127.9043
758.4496, 104.8691
758.9317, 57.19043
759.4138, 30.40332
759.8959, 43.23438
760.3781, 79.33301
760.8602, 84.17578
761.3423, 59.79102
761.8244, 38.14062
762.3065, 45.23926
762.7886, 59.63672
763.2708, 48.93164
763.7529, 17.54590
764.2350, 4.914063
764.7171, 3.791016
765.1992, 9.414063
765.6813, 38.10840
766.1635, 87.46582
766.6456, 98.60840
767.1277, 51.21582
767.6098, 0.6679690
768.0919, 19.73242
768.5740, 6.591797
769.0562, 5.897461
769.5383, 19.10938
770.0204, 37.75391
770.5025, 52.02441
770.9846, 67.34570
771.4667, 97.11719
771.9489, 150.7773
772.4310, 187.4365
772.9131, 182.3955
773.3952, 152.1543
773.8773, 112.1035
774.3594, 33.33398
774.8416, 3.964844
775.3237, 18.96191
775.8058, 66.01562
776.2879, 90.14746
776.7700, 91.39453
777.2521, 85.29883
777.7343, 73.31152
778.2164, 60.31543
778.6985, 53.59473
779.1806, 51.11816
779.6627, 48.11035
780.1448, 43.80859
780.6270, 37.27246
781.1091, 27.95410
781.5912, 15.90234
782.0733, 2.6366999E-02
782.5554, 37.43359
783.0375, 49.95703
783.5197, 16.57227
784.0018, 45.86426
784.4839, 73.54199
784.9660, 65.43164
785.4481, 52.99316
785.9302, 50.24805
786.4124, 53.95410
786.8945, 59.64453
787.3766, 67.36328
787.8587, 76.38086
788.3408, 84.24219
788.8229, 95.37891
789.3051, 117.0537
789.7872, 151.3174
790.2693, 166.5576
790.7514, 151.9014
791.2335, 134.6270
791.7156, 126.0186
792.1978, 126.2607
792.6799, 146.0449
793.1620, 186.7715
793.6441, 227.1084
794.1262, 247.0537
794.6083, 255.1230
795.0905, 265.0303
795.5726, 278.7881
796.0547, 286.7939
796.5368, 265.6523
797.0189, 247.5391
797.5010, 260.9375
797.9832, 319.6680
798.4653, 380.0938
798.9474, 443.7559
799.4295, 505.8770
799.9116, 562.0020
800.3937, 611.6914
800.8759, 661.1211
801.3580, 712.5156
801.8401, 756.3916
802.3222, 779.3037
802.8043, 792.1494
803.2864, 807.4531
803.7686, 821.1719
804.2507, 850.9355
804.7328, 907.8779
805.2149, 982.9170
805.6970, 1063.052
806.1791, 1146.693
806.6613, 1234.577
807.1434, 1334.361
807.6255, 1433.390
808.1076, 1505.188
808.5897, 1553.411
809.0718, 1603.575
809.5540, 1661.846
810.0361, 1726.091
810.5182, 1797.016
811.0003, 1871.623
811.4824, 1944.458
811.9645, 2007.756
812.4467, 2076.774
812.9288, 2160.117
813.4109, 2252.733
813.8930, 2337.270
814.3751, 2407.012
814.8572, 2484.490
815.3394, 2585.354
815.8215, 2696.951
816.3036, 2787.877
816.7857, 2863.144
817.2678, 2931.645
817.7499, 2985.229
818.2321, 3042.035
818.7142, 3126.062
819.1963, 3231.669
819.6784, 3322.041
820.1605, 3381.985
820.6426, 3430.420
821.1247, 3468.959
821.6068, 3501.357
822.0889, 3540.186
822.5710, 3583.740
823.0532, 3628.308
823.5353, 3680.328
824.0174, 3725.490
824.4995, 3749.773
824.9816, 3754.394
825.4637, 3729.084
825.9459, 3623.834
826.4280, 3520.955
826.9101, 3477.145
827.3922, 3498.260
827.8743, 3481.996
828.3564, 3413.628
828.8386, 3334.122
829.3207, 3258.933
829.8028, 3188.402
830.2849, 3121.782
830.7670, 3059.459
831.2491, 2995.589
831.7313, 2921.189
832.2134, 2846.660
832.6955, 2786.555
833.1776, 2741.680
833.6597, 2692.195
834.1418, 2625.783
834.6240, 2557.307
835.1061, 2494.183
835.5882, 2436.372
836.0703, 2379.795
836.5524, 2323.282
837.0345, 2275.341
837.5167, 2246.062
837.9988, 2230.090
838.4809, 2206.162
838.9630, 2173.572
839.4451, 2157.051
839.9272, 2190.239
840.4094, 2234.221
840.8915, 2254.334
841.3736, 2237.200
841.8557, 2247.366
842.3378, 2307.787
842.8199, 2369.204
843.3021, 2387.458
843.7842, 2359.584
844.2663, 2399.965
844.7484, 2515.205
845.2305, 2637.910
845.7126, 2700.096
846.1948, 2736.597
846.6769, 2801.029
847.1590, 2905.328
847.6411, 2995.135
848.1232, 3033.391
848.6053, 3062.066
849.0875, 3110.691
849.5696, 3183.661
850.0517, 3264.461
850.5338, 3358.225
851.0159, 3447.479
851.4980, 3511.325
851.9802, 3556.936
852.4623, 3613.418
852.9444, 3685.162
853.4265, 3742.676
853.9086, 3769.013
854.3907, 3766.549
854.8729, 3732.581
855.3550, 3653.852
855.8371, 3581.895
856.3192, 3523.905
856.8013, 3466.979
857.2834, 3405.136
857.7656, 3338.298
858.2477, 3246.705
858.7298, 3126.469
859.2119, 3010.682
859.6940, 2936.809
860.1761, 2884.615
860.6583, 2827.496
861.1404, 2760.965
861.6225, 2695.273
862.1046, 2630.568
862.5867, 2574.137
863.0688, 2535.705
863.5510, 2527.422
864.0331, 2475.169
864.5152, 2366.798
864.9973, 2259.760
865.4794, 2211.609
865.9615, 2207.160
866.4437, 2198.002
866.9258, 2176.811
867.4079, 2171.691
867.8900, 2208.569
868.3721, 2265.522
868.8542, 2328.330
869.3364, 2407.598
869.8185, 2448.551
870.3006, 2432.127
870.7827, 2408.879
871.2648, 2412.922
871.7469, 2445.385
872.2291, 2517.176
872.7112, 2630.095
873.1933, 2750.242
873.6754, 2830.851
874.1575, 2912.110
874.6396, 3045.843
875.1218, 3249.064
875.6039, 3451.694
876.0860, 3612.940
876.5681, 3788.424
877.0502, 4013.914
877.5323, 4294.518
878.0145, 4577.004
878.4966, 4861.269
878.9787, 5146.146
879.4608, 5422.707
879.9429, 5702.061
880.4250, 6003.182
880.9072, 6327.934
881.3893, 6667.805
881.8714, 7022.738
882.3535, 7384.002
882.8356, 7745.640
883.3177, 8106.703
883.7999, 8480.622
884.2820, 8883.955
884.7641, 9251.905
885.2462, 9543.845
885.7283, 9767.063
886.2104, 9961.921
886.6926, 10126.74
887.1747, 10215.14
887.6568, 10206.61
888.1389, 10103.07
888.6210, 9896.859
889.1031, 9582.824
889.5853, 9208.995
890.0674, 8762.803
890.5495, 8294.290
891.0316, 7827.967
891.5137, 7359.479
891.9958, 6861.644
892.4780, 6333.929
892.9601, 5836.147
893.4422, 5418.745
893.9243, 5040.271
894.4064, 4659.746
894.8885, 4280.153
895.3707, 3938.554
895.8528, 3658.471
896.3349, 3405.747
896.8170, 3171.601
897.2991, 2951.708
897.7813, 2725.928
898.2634, 2495.858
898.7455, 2280.729
899.2276, 2099.537
899.7097, 1935.977
900.1918, 1770.165
900.6740, 1606.906
901.1561, 1462.203
901.6382, 1354.859
902.1203, 1253.315
902.6024, 1146.130
903.0845, 1037.983
903.5667, 949.5146
904.0488, 882.1250
904.5309, 824.1621
905.0130, 776.0869
905.4951, 729.3691
905.9772, 658.9980
906.4594, 578.0146
906.9415, 520.3779
907.4236, 520.8350
907.9057, 522.5801
908.3878, 507.2510
908.8699, 478.9482
909.3521, 447.1924
909.8342, 414.4199
910.3163, 362.9961
910.7984, 279.7393
911.2805, 195.1660
911.7626, 163.2676
912.2448, 170.9912
912.7269, 189.8311
913.2090, 228.7852
913.6911, 246.2109
914.1732, 209.3828
914.6553, 144.2773
915.1375, 82.80566
915.6196, 8.225586
916.1017, 5.598633
916.5838, 66.06836
917.0659, 155.0293
917.5480, 171.3936
918.0302, 131.1582
918.5123, 75.51465
918.9944, 6.183594
919.4765, 48.24805
919.9586, 71.16309
920.4407, 69.29297
920.9229, 44.05273
921.4050, 27.46582
921.8871, 57.85645
922.3692, 37.28711
922.8513, 2.965820
923.3334, 40.12402
923.8156, 72.69141
924.2977, 94.00000
924.7798, 103.2891
925.2619, 110.3535
925.7440, 126.8994
926.2261, 140.5322
926.7083, 140.0186
927.1904, 121.5674
927.6725, 103.3398
928.1546, 82.05566
928.6367, 67.40234
929.1188, 69.56348
929.6010, 83.55664
930.0831, 84.18164
930.5652, 71.92480
931.0473, 53.52051
931.5294, 22.80859
932.0115, 3.650391
932.4937, 5.986328
932.9758, 12.35156
933.4579, 9.855469
933.9400, 26.86621
934.4221, 63.19824
934.9042, 89.27637
935.3864, 106.6797
935.8685, 120.3262
936.3506, 130.2168
936.8327, 138.0225
937.3148, 143.2861
937.7969, 147.7061
938.2791, 156.9600
938.7612, 165.9834
939.2433, 161.4541
939.7254, 122.4932
940.2075, 105.1826
940.6896, 122.7500
941.1718, 159.0928
941.6539, 196.4990
942.1360, 229.9219
942.6181, 225.4600
943.1002, 159.9102
943.5823, 94.56445
944.0645, 83.33105
944.5466, 97.65527
945.0287, 102.0020
945.5108, 79.27930
945.9929, 64.66797
946.4750, 59.76465
946.9572, 59.50098
947.4393, 60.33594
947.9214, 61.42676
948.4035, 56.37891
948.8856, 43.79590
949.3677, 35.95020
949.8499, 53.48047
950.3320, 71.86816
950.8141, 64.80469
951.2962, 20.04980
951.7783, 7.953125
952.2604, 50.70215
952.7426, 83.42578
953.2247, 47.50684
953.7068, 31.48633
954.1889, 16.99609
954.6710, 80.19336
955.1531, 164.3691
955.6353, 171.2607
956.1174, 148.9580
956.5995, 120.2529
957.0816, 88.68359
957.5637, 65.24902
958.0458, 45.64941
958.5280, 46.23047
959.0101, 78.67969
959.4922, 127.4512
959.9743, 153.4453
960.4564, 162.3125
960.9385, 174.5918
961.4207, 203.4922
961.9028, 231.7695
962.3849, 247.4873
962.8670, 257.5020
963.3491, 274.0947
963.8312, 301.9746
964.3134, 326.4023
964.7955, 347.4971
965.2776, 360.5488
965.7597, 347.0840
966.2418, 321.8076
966.7239, 324.4229
967.2061, 367.2021
967.6882, 413.5645
968.1703, 446.9814
968.6524, 474.7031
969.1345, 501.1494
969.6166, 525.5947
970.0988, 542.0107
970.5809, 551.9355
971.0630, 555.7959
971.5451, 541.7119
972.0272, 526.0967
972.5093, 553.7744
972.9915, 619.7295
973.4736, 664.4805
973.9557, 635.0137
974.4378, 602.2979
974.9199, 598.1299
975.4020, 619.0957
975.8842, 652.4893
976.3663, 701.9717
976.8484, 729.7334
977.3305, 708.4678
977.8126, 672.1309
978.2947, 665.7324
978.7769, 683.8672
979.2590, 713.2920
979.7411, 763.6357
980.2232, 802.9629
980.7053, 831.7422
981.1874, 841.5957
981.6696, 808.4590
982.1517, 730.3320
982.6338, 700.1035
983.1159, 736.7373
983.5980, 789.5967
984.0801, 811.0107
984.5623, 819.6484
985.0444, 838.4521
985.5264, 874.1592
986.0085, 902.6680
986.4907, 927.1504
986.9728, 938.5752
987.4549, 921.9512
987.9370, 879.0215
988.4191, 857.5176
988.9012, 857.8428
989.3834, 859.2344
989.8655, 839.8896
990.3476, 823.8105
990.8297, 834.4785
991.3118, 864.1914
991.7939, 877.5645
992.2761, 862.6055
992.7582, 857.5928
993.2403, 868.4121
993.7224, 895.9756
994.2045, 959.8125
994.6866, 1045.011
995.1688, 1099.130
995.6509, 1076.618
996.1330, 1069.682
996.6151, 1146.376
997.0972, 1255.956
997.5793, 1335.053
998.0615, 1380.214
998.5436, 1400.646
999.0257, 1393.917
999.5078, 1374.372
999.9899, 1338.103
1000.472, 1304.988
1000.954, 1322.592
1001.436, 1397.132
1001.918, 1453.990
1002.401, 1446.527
1002.883, 1427.661
1003.365, 1428.914
1003.847, 1444.763
1004.329, 1409.575
1004.811, 1321.732
1005.293, 1250.708
1005.775, 1259.421
1006.257, 1275.398
1006.740, 1202.359
1007.222, 1076.013
1007.704, 981.5537
1008.186, 986.8877
1008.668, 962.3682
1009.150, 882.1855
1009.632, 780.1514
1010.114, 707.2734
1010.596, 658.5068
1011.079, 620.4326
1011.561, 590.2285
1012.043, 552.4580
1012.525, 482.9902
1013.007, 406.6230
1013.489, 346.8818
1013.971, 303.7275
1014.453, 283.6689
1014.936, 292.8359
1015.418, 304.7783
1015.900, 302.4561
1016.382, 290.2305
1016.864, 276.8936
1017.346, 262.4922
1017.828, 246.1592
1018.310, 217.4688
1018.792, 197.5420
1019.275, 203.8564
1019.757, 221.6279
1020.239, 210.0117
1020.721, 167.1182
1021.203, 139.4141
1021.685, 143.2217
1022.167, 151.2510
1022.649, 125.1318
1023.132, 86.77637
1023.614, 68.96387
1024.096, 98.83398
1024.578, 98.48633
1025.060, 46.25098
1025.542, 9.687500
1026.024, 35.82422
1026.506, 33.59082
1026.989, 0.3847660
1027.471, 60.31836
1027.953, 105.0850
1028.435, 89.43848
1028.917, 63.57129
1029.399, 64.63477
1029.881, 85.77637
1030.363, 77.73828
1030.845, 27.42871
1031.328, 3.9059999E-03
1031.810, 20.31348
1032.292, 58.74902
1032.774, 70.23926
1033.256, 63.46484
1033.738, 56.18750
1034.220, 56.26562
1034.702, 51.58789
1035.184, 31.38086
1035.667, 13.66699
1036.149, 13.33984
1036.631, 30.51855
1037.113, 54.64551
1037.595, 86.06445
1038.077, 104.6074
1038.559, 79.26172
1039.041, 46.70801
1039.524, 41.15723
1040.006, 61.71973
1040.488, 69.12207
1040.970, 57.49512
1041.452, 41.21973
1041.934, 21.07617
1042.416, 3.309570
1042.898, 8.721680
1043.380, 26.44824
1043.863, 24.81055
1044.345, 27.11719
1044.827, 62.78320
1045.309, 44.17969
1045.791, 5.249023
1046.273, 28.40625
1046.755, 59.35059
1047.237, 49.28711
1047.719, 6.602539
1048.202, 55.86426
1048.684, 42.13086
1049.166, 8.853516
1049.648, 4.381836
1050.130, 28.46387
1050.612, 38.13574
1051.094, 27.92871
1051.576, 3.256836
1052.059, 44.52930
1052.541, 95.40625
1053.023, 95.56152
1053.505, 58.56152
1053.987, 27.24316
1054.469, 14.65430
1054.951, 12.41211
1055.433, 25.62500
1055.916, 41.51855
1056.398, 45.82129
1056.880, 34.64746
1057.362, 38.78418
1057.844, 60.47266
1058.326, 75.80371
1058.808, 48.23926
1059.290, 15.69824
1059.772, 26.70312
1060.255, 77.79883
1060.737, 115.9023
1061.219, 130.6719
1061.701, 136.0098
1062.183, 131.7568
1062.665, 124.0498
1063.147, 132.9033
1063.629, 149.8867
1064.111, 144.9775
1064.594, 97.82617
1065.076, 57.45703
1065.558, 53.49512
1066.040, 64.20117
1066.522, 71.70508
1067.004, 76.42676
1067.486, 73.44141
1067.968, 62.07324
1068.450, 53.88867
1068.933, 65.80176
1069.415, 79.08691
1069.897, 70.18164
1070.379, 44.07227
1070.861, 25.00879
1071.343, 17.66797
1071.825, 16.47852
1072.307, 21.14941
1072.790, 30.45508
1073.272, 47.91211
1073.754, 67.66797
1074.236, 68.68262
1074.718, 38.36621
1075.200, 22.47559
1075.682, 54.15723
1076.164, 97.44727
1076.646, 127.8652
1077.129, 145.4854
1077.611, 174.4580
1078.093, 214.8701
1078.575, 241.8369
1079.057, 241.2754
1079.539, 219.4268
1080.021, 161.7295
1080.503, 88.10645
1080.985, 53.77539
1081.468, 80.97363
1081.950, 103.5967
1082.432, 114.7236
1082.914, 117.5859
1083.396, 110.4697
1083.878, 99.29785
1084.360, 96.64844
1084.842, 106.3760
1085.325, 120.4717
1085.807, 146.1445
1086.289, 158.3994
1086.771, 129.7451
1087.253, 80.79004
1087.735, 135.5576
1088.217, 279.1045
1088.699, 393.2617
1089.182, 427.5693
1089.664, 416.4648
1090.146, 353.4482
1090.628, 269.6660
1091.110, 213.3125
1091.592, 196.2236
1092.074, 155.6807
1092.556, 82.49414
1093.038, 25.21484
1093.521, 48.45117
1094.003, 103.4824
1094.485, 130.3604
1094.967, 126.9131
1095.449, 110.8682
1095.931, 69.04004
1096.413, 42.16504
1096.895, 41.89844
1097.377, 60.63867
1097.860, 84.51367
1098.342, 111.3750
1098.824, 133.2764
1099.306, 150.1191
1099.788, 155.1045
1100.270, 142.2197
1100.752, 117.6025
1101.234, 75.66016
1101.717, 14.02246
1102.199, 23.37793
1102.681, 102.9443
1103.163, 172.6738
1103.645, 173.0283
1104.127, 148.2285
1104.609, 125.4600
1105.091, 105.6543
1105.573, 89.20117
1106.056, 75.49121
1106.538, 67.14160
1107.020, 66.54785
1107.502, 66.75391
1107.984, 49.43945
1108.466, 32.49707
1108.948, 40.65918
1109.430, 77.61133
1109.912, 145.6504
1110.395, 276.9941
1110.877, 393.9639
1111.359, 484.3916
1111.841, 529.5469
1112.323, 422.8320
1112.805, 214.0459
1113.287, 84.47070
1113.769, 152.3408
1114.252, 215.3770
1114.734, 157.0938
1115.216, 73.42090
1115.698, 60.12988
1116.180, 125.3936
1116.662, 143.3789
1117.144, 112.5400
1117.626, 77.37598
1118.109, 62.05566
1118.591, 61.81445
1119.073, 90.57129
1119.555, 132.4209
1120.037, 127.9814
1120.519, 59.42871
1121.001, 6.703125
1121.483, 16.23340
1121.965, 20.99316
1122.448, 18.17480
1122.930, 8.462891
1123.412, 11.05176
1123.894, 43.53613
1124.376, 60.75488
1124.858, 47.02930
1125.340, 42.62012
1125.822, 75.04980
1126.304, 121.2158
1126.787, 104.0977
1127.269, 45.31348
1127.751, 9.290039
1128.233, 34.78125
1128.715, 65.02539
1129.197, 90.08691
1129.679, 107.6094
1130.161, 113.2129
1130.644, 107.5361
1131.126, 103.8975
1131.608, 102.2764
1132.090, 96.58008
1132.572, 75.23633
1133.054, 55.36816
1133.536, 45.47559
1134.018, 46.17773
1134.500, 60.51270
1134.983, 90.42871
1135.465, 119.6572
1135.947, 149.4814
1136.429, 96.53027
1136.911, 161.5547
1137.393, 194.3164
1137.875, 196.5635
1138.357, 75.64062
1138.839, 113.9326
1139.322, 88.98145
1139.804, 61.85156
1140.286, 123.8584
1140.768, 22.62988
1141.250, 83.90527
1141.732, 80.75977
1142.214, 107.5889
1142.696, 70.65723
1143.179, 53.93750
1143.661, 101.7783
1144.143, 114.4170
1144.625, 71.53223
1145.107, 102.1963
1145.589, 2.215820
1146.071, 17.68555
1146.553, 83.16016
1147.036, 45.17383
1147.518, 78.89355
1148.000, 85.76465
1148.482, 30.56250
1148.964, 68.26758
1149.446, 74.53027
1149.928, 14.28125
1150.410, 78.02734
1150.892, 2.579102
1151.375, 12.46191
1151.857, 18.12988
1152.339, 2.116211
1152.821, 60.52246
1153.303, 47.87207
1153.785, 29.02148
1154.267, 38.20312
1154.749, 31.11816
1155.231, 46.25391
1155.714, 24.15137
1156.196, 52.13965
1156.678, 91.70996
1157.160, 45.41699
1157.642, 90.72949
1158.124, 31.65137
1158.606, 21.52246
1159.088, 45.01172
1159.571, 76.94238
1160.053, 93.87207
1160.535, 96.85449
1161.017, 85.78906
1161.499, 45.19531
1161.981, 30.19141
1162.463, 51.32227
1162.945, 77.72754
1163.427, 75.75586
1163.910, 58.12402
1164.392, 40.76465
1164.874, 25.62012
1165.356, 17.31836
1165.838, 19.71387
1166.320, 25.07031
1166.802, 32.90918
1167.284, 41.19336
1167.766, 44.95898
1168.249, 46.71875
1168.731, 54.59180
1169.213, 72.35352
1169.695, 81.70312
1170.177, 65.55566
1170.659, 53.19727
1171.141, 59.11914
1171.623, 77.43066
1172.106, 89.97949
1172.588, 96.56836
1173.070, 96.33691
1173.552, 82.33203
1174.034, 73.01660
1174.516, 75.44922
1174.998, 87.56836
1175.480, 111.0635
1175.963, 143.5361
1176.445, 159.5449
1176.927, 159.7100
1177.409, 148.4229
1177.891, 115.7803
1178.373, 86.09668
1178.855, 76.37598
1179.337, 74.73438
1179.819, 60.41016
1180.302, 33.15137
1180.784, 27.94043
1181.266, 48.96582
1181.748, 80.21875
1182.230, 117.9736
1182.712, 154.1475
1183.194, 182.4512
1183.676, 203.6943
1184.158, 222.2090
1184.641, 238.6973
1185.123, 243.3916
1185.605, 231.8184
1186.087, 215.4473
1186.569, 194.7090
1187.051, 181.2451
1187.533, 196.7246
1188.015, 244.3574
1188.498, 240.8867
1188.980, 177.9355
1189.462, 128.6182
1189.944, 130.8506
1190.426, 152.2979
1190.908, 164.5605
1191.390, 167.7842
1191.872, 160.2568
1192.354, 135.2617
1192.837, 122.3174
1193.319, 123.0049
1193.801, 129.5215
1194.283, 136.6377
1194.765, 146.9951
1195.247, 169.8037
1195.729, 198.4141
1196.211, 214.2764
1196.693, 216.1416
1197.176, 198.6895
1197.658, 153.8799
1198.140, 115.7412
1198.622, 131.9404
1199.104, 168.4180
1199.586, 169.0166
1200.068, 137.2197
1200.550, 125.2168
1201.033, 152.6367
1201.515, 178.0518
1201.997, 196.1729
1202.479, 205.0166
1202.961, 198.2900
1203.443, 181.7490
1203.925, 162.0889
1204.407, 139.9092
1204.890, 127.3047
1205.372, 125.9736
1205.854, 134.7041
1206.336, 155.6172
1206.818, 182.7207
1207.300, 210.2646
1207.782, 229.0723
1208.264, 213.7100
1208.746, 136.7871
1209.229, 106.6475
1209.711, 161.7705
1210.193, 214.3535
1210.675, 215.2383
1211.157, 185.1992
1211.639, 179.0957
1212.121, 187.7686
1212.603, 186.3984
1213.085, 145.3486
1213.568, 132.9346
1214.050, 171.6748
1214.532, 212.7520
1215.014, 211.0723
1215.496, 183.1377
1215.978, 182.0273
1216.460, 200.4727
1216.942, 206.9707
1217.425, 168.4844
1217.907, 143.9717
1218.389, 140.3516
1218.871, 156.2861
1219.353, 199.6660
1219.835, 259.6582
1220.317, 319.8164
1220.799, 373.8730
1221.281, 378.3975
1221.764, 267.3965
1222.246, 165.0605
1222.728, 92.30566
1223.210, 52.64355
1223.692, 53.73730
1224.174, 92.25391
1224.656, 181.3955
1225.138, 326.0303
1225.620, 407.5801
1226.103, 323.5127
1226.585, 236.9092
1227.067, 193.3789
1227.549, 177.3447
1228.031, 157.1328
1228.513, 135.5352
1228.995, 121.2402
1229.477, 117.5801
1229.960, 114.6328
1230.442, 121.3203
1230.924, 110.7109
1231.406, 61.30469
1231.888, 6.307617
1232.370, 39.28613
1232.852, 40.92188
1233.334, 17.14355
1233.816, 54.24707
1234.299, 92.00879
1234.781, 61.63281
1235.263, 25.12793
1235.745, 20.63379
1236.227, 41.17676
1236.709, 75.84473
1237.191, 117.3672
1237.673, 142.4873
1238.156, 124.6650
1238.638, 115.6172
1239.120, 127.3662
1239.602, 138.6797
1240.084, 130.7412
1240.566, 107.6299
1241.048, 68.77344
1241.530, 22.46680
1242.012, 1.976563
1242.495, 56.00586
1242.977, 84.27344
1243.459, 64.94043
1243.941, 32.45020
1244.423, 29.52344
1244.905, 41.74805
1245.387, 31.25684
1245.869, 0.6777340
1246.351, 12.70312
1246.834, 12.69141
1247.316, 46.66406
1247.798, 93.41797
1248.280, 128.1133
1248.762, 93.44336
1249.244, 21.95410
1249.726, 16.58691
1250.208, 78.79004
1250.691, 121.8223
1251.173, 124.1924
1251.655, 118.0439
1252.137, 108.7617
1252.619, 99.34863
1253.101, 92.95996
1253.583, 90.33594
1254.065, 95.58203
1254.547, 111.0664
1255.030, 113.9570
1255.512, 99.31836
1255.994, 78.71680
1256.476, 64.33008
1256.958, 52.22461
1257.440, 44.08984
1257.922, 37.69141
1258.404, 25.60547
1258.886, 0.5332030
1259.369, 7.265625
1259.851, 56.41211
1260.333, 94.71875
1260.815, 93.91211
1261.297, 76.23242
1261.779, 62.62695
1262.261, 55.18555
1262.743, 61.33789
1263.226, 92.55859
1263.708, 86.09766
1264.190, 34.87500
1264.672, 0.3261720
1265.154, 0.0000000E+00
##END=



