##NAMES=Anorthite
##RRUFFID=R060193
##IDEAL CHEMISTRY=CaAl_2_Si_2_O_8_
##LOCALITY=Mexico
##OWNER=RRUFF
##SOURCE=Bill Barker
##DESCRIPTION=Tan colored translucent fragment
##STATUS=The identification of this mineral has been confirmed by X-ray diffraction and chemical analysis
##URL=rruff.info/R060193
##MEASURED CHEMISTRY=(Ca_0.58_Na_0.39_K_0.02_)Al_1.60_Si_2.40_O_8_
157.6460, 0.0000000E+00
158.1281, 8.879528
158.6102, 8.038731
159.0923, 9.034504
159.5744, 0.4556690
160.0566, 2.181851
160.5387, 1.288243
161.0208, 0.2857460
161.5029, 1.341864
161.9850, 6.047745
162.4671, 12.87064
162.9493, 23.77717
163.4314, 40.19122
163.9135, 64.68284
164.3956, 91.35175
164.8777, 117.5313
165.3598, 143.6461
165.8420, 171.8387
166.3241, 202.9865
166.8062, 236.7126
167.2883, 272.7359
167.7704, 312.6464
168.2525, 352.7068
168.7346, 390.7675
169.2168, 426.9803
169.6989, 462.8569
170.1810, 497.3289
170.6631, 532.4587
171.1452, 570.9758
171.6273, 616.9054
172.1095, 663.6932
172.5916, 706.9067
173.0737, 746.7749
173.5558, 784.3194
174.0379, 819.5917
174.5201, 852.8174
175.0022, 884.7428
175.4843, 915.7109
175.9664, 945.4955
176.4485, 973.3469
176.9306, 999.1365
177.4128, 1022.581
177.8949, 1044.357
178.3770, 1063.619
178.8591, 1078.815
179.3412, 1089.506
179.8233, 1095.662
180.3055, 1097.525
180.7876, 1095.116
181.2697, 1087.941
181.7518, 1073.813
182.2339, 1054.195
182.7160, 1032.899
183.1982, 1012.881
183.6803, 992.4477
184.1624, 967.1190
184.6445, 936.5780
185.1266, 904.8030
185.6087, 876.0745
186.0909, 849.7088
186.5730, 824.3371
187.0551, 799.5597
187.5372, 775.4276
188.0193, 751.1064
188.5014, 729.7110
188.9836, 713.2595
189.4657, 698.0974
189.9478, 684.1979
190.4299, 671.5496
190.9120, 660.4633
191.3941, 648.6266
191.8763, 640.7454
192.3584, 638.2965
192.8405, 638.1063
193.3226, 635.0415
193.8047, 629.1941
194.2868, 623.9342
194.7690, 620.2613
195.2511, 615.3273
195.7332, 606.9005
196.2153, 596.6058
196.6974, 585.2912
197.1795, 573.6951
197.6617, 561.7398
198.1438, 549.0660
198.6259, 535.1731
199.1080, 520.3940
199.5901, 507.0896
200.0722, 495.7103
200.5544, 485.1517
201.0365, 474.1197
201.5186, 462.8848
202.0007, 450.4866
202.4828, 436.0984
202.9649, 419.5357
203.4471, 403.2800
203.9292, 387.1976
204.4113, 371.3033
204.8934, 355.2638
205.3755, 339.0511
205.8576, 323.4057
206.3398, 308.8376
206.8219, 295.4915
207.3040, 282.1748
207.7861, 269.1421
208.2682, 256.0819
208.7503, 242.4417
209.2325, 228.3783
209.7146, 213.8280
210.1967, 198.6765
210.6788, 182.7744
211.1609, 167.0370
211.6430, 151.2953
212.1252, 135.8105
212.6073, 121.4500
213.0894, 108.4539
213.5715, 96.13819
214.0536, 84.34768
214.5357, 73.20723
215.0179, 61.89654
215.5000, 51.72540
215.9821, 41.47075
216.4642, 32.26994
216.9463, 24.77091
217.4284, 17.24957
217.9105, 8.765951
218.3927, 0.9547040
218.8748, 10.12589
219.3569, 19.12530
219.8390, 27.41670
220.3211, 23.52510
220.8032, 19.50770
221.2854, 15.96552
221.7675, 11.94222
222.2496, 7.332834
222.7317, 2.580685
223.2138, 3.363317
223.6959, 8.935776
224.1781, 10.50447
224.6602, 5.802240
225.1423, 1.019463
225.6244, 1.184158
226.1065, 0.3867300
226.5886, 1.050486
227.0708, 0.6703870
227.5529, 0.5064370
228.0350, 1.940748
228.5171, 3.515079
228.9992, 5.505533
229.4813, 7.928900
229.9635, 10.58063
230.4456, 14.38158
230.9277, 19.72153
231.4098, 26.02440
231.8919, 24.01417
232.3740, 17.77179
232.8562, 11.64236
233.3383, 5.686926
233.8204, 4.1751999E-02
234.3025, 5.970921
234.7846, 12.82265
235.2667, 19.81148
235.7489, 25.36679
236.2310, 28.02001
236.7131, 31.63345
237.1952, 37.52720
237.6773, 45.95248
238.1594, 55.82081
238.6416, 68.20741
239.1237, 81.40862
239.6058, 92.46597
240.0879, 99.93824
240.5700, 107.7461
241.0521, 117.1213
241.5343, 128.2106
242.0164, 139.9514
242.4985, 152.5243
242.9806, 165.5984
243.4627, 178.8340
243.9448, 192.8969
244.4270, 205.8709
244.9091, 216.7121
245.3912, 224.6695
245.8733, 234.6119
246.3554, 247.4715
246.8375, 261.5128
247.3197, 274.5518
247.8018, 286.3838
248.2839, 297.5286
248.7660, 307.8809
249.2481, 317.3086
249.7302, 327.4082
250.2124, 338.3322
250.6945, 349.9020
251.1766, 362.2536
251.6587, 376.3493
252.1408, 389.3778
252.6229, 400.1934
253.1051, 408.6435
253.5872, 419.2104
254.0693, 433.3380
254.5514, 448.1724
255.0335, 460.6250
255.5156, 469.3023
255.9978, 478.4021
256.4799, 488.8170
256.9620, 500.5552
257.4441, 512.1315
257.9262, 523.7441
258.4083, 534.8702
258.8904, 544.5062
259.3726, 551.3723
259.8547, 560.1189
260.3368, 572.0205
260.8189, 586.8088
261.3010, 600.4053
261.7831, 612.3929
262.2653, 623.8145
262.7474, 635.3442
263.2295, 647.2219
263.7116, 658.8488
264.1937, 670.3716
264.6758, 681.6280
265.1580, 691.9014
265.6401, 700.3104
266.1222, 709.3199
266.6043, 721.2540
267.0864, 737.7873
267.5685, 751.3890
268.0507, 760.4266
268.5328, 766.3140
269.0149, 774.7942
269.4970, 787.1395
269.9791, 799.2667
270.4612, 808.5811
270.9434, 814.2100
271.4255, 820.9980
271.9076, 829.4524
272.3897, 839.1596
272.8718, 849.3505
273.3539, 860.2408
273.8361, 870.7364
274.3182, 880.1793
274.8003, 888.4049
275.2824, 896.6802
275.7645, 905.3545
276.2466, 913.3833
276.7288, 918.2063
277.2109, 919.2310
277.6930, 919.2149
278.1751, 920.0351
278.6572, 921.9114
279.1393, 924.4714
279.6215, 928.4855
280.1036, 931.8043
280.5857, 930.6722
281.0678, 924.6208
281.5499, 917.3439
282.0320, 910.7222
282.5142, 905.0500
282.9963, 898.8180
283.4784, 891.7758
283.9605, 883.9264
284.4426, 875.6611
284.9247, 867.0161
285.4069, 856.4789
285.8890, 842.7002
286.3711, 826.5575
286.8532, 812.1786
287.3353, 799.8645
287.8174, 787.5995
288.2996, 773.6487
288.7817, 758.0088
289.2638, 741.0815
289.7459, 723.6263
290.2280, 705.5480
290.7101, 684.7492
291.1923, 660.8766
291.6744, 637.7632
292.1565, 619.1537
292.6386, 603.9939
293.1207, 587.4155
293.6028, 567.8478
294.0850, 546.8221
294.5671, 526.4305
295.0492, 506.6306
295.5313, 486.8300
296.0134, 466.2128
296.4955, 445.4785
296.9777, 426.8600
297.4598, 411.2272
297.9419, 396.8275
298.4240, 380.8495
298.9061, 363.8301
299.3882, 348.1201
299.8704, 336.8832
300.3525, 327.9612
300.8346, 316.6746
301.3167, 302.2747
301.7988, 286.8455
302.2809, 271.1327
302.7631, 255.9914
303.2452, 243.3321
303.7273, 235.6749
304.2094, 230.3113
304.6915, 224.1438
305.1736, 217.0172
305.6558, 209.1559
306.1379, 200.1573
306.6200, 190.6850
307.1021, 181.9546
307.5842, 174.2342
308.0663, 167.5083
308.5485, 162.0325
309.0306, 157.8033
309.5127, 153.5005
309.9948, 147.9331
310.4769, 141.6673
310.9590, 135.3884
311.4412, 129.8391
311.9233, 124.1689
312.4054, 117.3259
312.8875, 109.5657
313.3696, 102.5886
313.8517, 97.96169
314.3339, 94.27783
314.8160, 90.77478
315.2981, 86.77403
315.7802, 83.23331
316.2623, 81.21337
316.7444, 80.15065
317.2266, 78.43388
317.7087, 74.26073
318.1908, 69.85544
318.6729, 66.95607
319.1550, 66.65167
319.6371, 65.46632
320.1193, 61.67894
320.6014, 56.48688
321.0835, 51.70915
321.5656, 47.50547
322.0477, 44.10705
322.5298, 41.67940
323.0120, 40.32175
323.4941, 39.34454
323.9762, 38.82576
324.4583, 38.51172
324.9404, 38.12934
325.4225, 38.17389
325.9047, 37.61639
326.3868, 35.79280
326.8689, 32.64631
327.3510, 30.48534
327.8331, 30.11647
328.3152, 30.44894
328.7974, 30.72990
329.2795, 30.73867
329.7616, 30.97742
330.2437, 31.63412
330.7258, 32.60501
331.2079, 33.33166
331.6901, 33.82823
332.1722, 34.04433
332.6543, 33.87412
333.1364, 32.62498
333.6185, 32.20670
334.1006, 32.85977
334.5828, 34.25731
335.0649, 35.78948
335.5470, 38.12180
336.0291, 39.39053
336.5112, 38.36525
336.9933, 34.14975
337.4755, 32.57729
337.9576, 35.02805
338.4397, 38.56006
338.9218, 38.94131
339.4039, 35.30511
339.8860, 31.69122
340.3681, 29.48525
340.8503, 28.49320
341.3324, 25.70446
341.8145, 20.23073
342.2966, 15.42633
342.7787, 14.97909
343.2608, 19.13595
343.7430, 22.74798
344.2251, 25.08189
344.7072, 26.02438
345.1893, 24.57180
345.6714, 20.51827
346.1535, 16.48955
346.6357, 14.60056
347.1178, 14.48662
347.5999, 13.86325
348.0820, 12.31341
348.5641, 10.53504
349.0462, 9.829353
349.5284, 10.02662
350.0105, 9.879888
350.4926, 8.308591
350.9747, 5.971258
351.4568, 4.598951
351.9389, 4.388205
352.4211, 3.948242
352.9032, 0.7774560
353.3853, 3.782283
353.8674, 6.466568
354.3495, 4.619028
354.8316, 1.083242
355.3138, 1.410666
355.7959, 2.834538
356.2780, 2.784305
356.7601, 0.3763990
357.2422, 4.723019
357.7243, 7.789509
358.2065, 8.521506
358.6886, 8.357691
359.1707, 7.517500
359.6528, 6.436470
360.1349, 6.424746
360.6170, 8.885573
361.0992, 8.063572
361.5813, 4.354237
362.0634, 0.3332980
362.5455, 2.211026
363.0276, 1.512794
363.5097, 0.8787000
363.9919, 2.671782
364.4740, 3.206548
364.9561, 2.984060
365.4382, 1.935023
365.9203, 2.1268999E-02
366.4024, 1.755318
366.8846, 3.716935
367.3667, 5.195143
367.8488, 5.413461
368.3309, 1.811403
368.8130, 0.5744460
369.2951, 0.2215740
369.7773, 2.184814
370.2594, 2.601716
370.7415, 1.295085
371.2236, 4.883435
371.7057, 3.249607
372.1878, 3.409013
372.6700, 1.452832
373.1521, 0.6554640
373.6342, 0.7623690
374.1163, 1.367505
374.5984, 2.611359
375.0805, 3.696395
375.5627, 2.038370
376.0448, 0.4704260
376.5269, 1.879040
377.0090, 5.403917
377.4911, 9.070265
377.9732, 11.39625
378.4554, 12.03211
378.9375, 14.35973
379.4196, 19.96946
379.9017, 27.37736
380.3838, 30.38462
380.8659, 28.50881
381.3481, 25.66672
381.8302, 23.88822
382.3123, 23.33234
382.7944, 25.65009
383.2765, 31.87831
383.7586, 38.88553
384.2408, 41.28041
384.7229, 39.76863
385.2050, 38.87933
385.6871, 41.17601
386.1692, 45.57164
386.6513, 50.44522
387.1335, 55.73643
387.6156, 60.90865
388.0977, 65.14462
388.5798, 68.89846
389.0619, 73.13176
389.5440, 78.33452
390.0262, 83.55837
390.5083, 88.13867
390.9904, 92.13473
391.4725, 95.64034
391.9546, 98.06479
392.4367, 100.3205
392.9189, 103.2594
393.4010, 107.2548
393.8831, 111.2505
394.3652, 114.4047
394.8473, 117.1890
395.3294, 120.4455
395.8116, 125.0560
396.2937, 129.6736
396.7758, 133.6736
397.2579, 136.9436
397.7400, 140.2551
398.2221, 144.3436
398.7043, 148.2022
399.1864, 150.9824
399.6685, 151.5918
400.1506, 152.2552
400.6327, 153.2918
401.1148, 154.6097
401.5970, 155.7474
402.0791, 156.9479
402.5612, 157.6349
403.0433, 157.3457
403.5254, 155.2702
404.0075, 154.7362
404.4897, 157.0390
404.9718, 159.8486
405.4539, 159.2740
405.9360, 154.2823
406.4181, 149.2216
406.9002, 145.3031
407.3824, 142.4339
407.8645, 139.3726
408.3466, 136.0573
408.8287, 132.7086
409.3108, 129.6526
409.7929, 126.8485
410.2751, 123.4972
410.7572, 119.3253
411.2393, 114.4436
411.7214, 109.5674
412.2035, 104.9344
412.6856, 100.3239
413.1678, 95.55742
413.6499, 90.41431
414.1320, 84.23228
414.6141, 76.80682
415.0962, 69.28234
415.5783, 62.84691
416.0605, 57.49929
416.5426, 52.91235
417.0247, 49.50278
417.5068, 46.44127
417.9889, 43.22897
418.4710, 39.60458
418.9532, 35.11039
419.4353, 28.27973
419.9174, 21.35289
420.3995, 16.13321
420.8816, 13.36567
421.3637, 11.49956
421.8459, 10.34027
422.3280, 9.507766
422.8101, 8.443222
423.2922, 7.115877
423.7743, 5.373935
424.2564, 2.827399
424.7386, 0.6663190
425.2207, 2.922013
425.7028, 1.863811
426.1849, 1.284871
426.6670, 0.2484100
427.1491, 1.858190
427.6313, 4.469822
428.1134, 7.770799
428.5955, 10.73650
429.0776, 11.80827
429.5597, 10.95941
430.0418, 9.737323
430.5240, 8.653925
431.0061, 7.552632
431.4882, 6.571480
431.9703, 5.712856
432.4524, 4.728401
432.9345, 3.319892
433.4167, 1.666563
433.8988, 0.5902660
434.3809, 0.8222230
434.8630, 1.298640
435.3451, 1.081208
435.8272, 6.185953
436.3094, 8.528746
436.7915, 6.739440
437.2736, 6.747721
437.7557, 6.547325
438.2378, 6.024824
438.7199, 4.809051
439.2020, 1.949374
439.6841, 1.867888
440.1663, 5.232485
440.6484, 8.095475
441.1305, 9.886940
441.6126, 9.340784
442.0947, 6.876324
442.5768, 5.056562
443.0590, 6.761652
443.5411, 8.722697
444.0232, 8.149538
444.5053, 3.285487
444.9874, 1.446595
445.4695, 5.273365
445.9517, 7.928838
446.4338, 9.003600
446.9159, 7.327749
447.3980, 5.137658
447.8801, 2.625856
448.3622, 0.3051120
448.8444, 1.822279
449.3265, 0.6502980
449.8086, 0.7981400
450.2907, 0.9533560
450.7728, 0.6487250
451.2549, 2.611492
451.7371, 4.963819
452.2192, 7.582191
452.7013, 10.07857
453.1834, 12.28913
453.6655, 14.89264
454.1476, 17.76531
454.6298, 21.03010
455.1119, 27.10219
455.5940, 36.40932
456.0761, 45.88719
456.5582, 51.42072
457.0403, 53.97681
457.5225, 58.79149
458.0046, 67.04430
458.4867, 77.50298
458.9688, 88.86169
459.4509, 100.9493
459.9330, 112.5750
460.4152, 122.3767
460.8973, 131.9066
461.3794, 142.9405
461.8615, 155.7469
462.3436, 169.2197
462.8257, 182.7429
463.3079, 196.6737
463.7900, 211.4563
464.2721, 228.2235
464.7542, 244.8964
465.2363, 260.1754
465.7184, 274.6901
466.2006, 290.2168
466.6827, 306.8146
467.1648, 324.8649
467.6469, 344.7878
468.1290, 367.2933
468.6111, 388.8561
469.0933, 408.4656
469.5754, 427.9231
470.0575, 449.1002
470.5396, 472.2925
471.0217, 496.5720
471.5038, 522.3315
471.9860, 549.1631
472.4681, 576.4286
472.9502, 604.6743
473.4323, 631.6170
473.9144, 654.8906
474.3965, 674.7839
474.8787, 697.7032
475.3608, 723.9241
475.8429, 751.3655
476.3250, 777.6907
476.8071, 802.9659
477.2892, 827.9304
477.7714, 853.2004
478.2535, 877.1165
478.7356, 896.4810
479.2177, 912.0573
479.6998, 926.6621
480.1819, 943.5401
480.6641, 959.6752
481.1462, 971.5867
481.6283, 979.0159
482.1104, 984.2651
482.5925, 989.7594
483.0746, 993.2683
483.5568, 992.6886
484.0389, 983.6341
484.5210, 974.1389
485.0031, 966.5085
485.4852, 960.2546
485.9673, 953.6779
486.4495, 946.0744
486.9316, 938.6493
487.4137, 931.4780
487.8958, 924.0890
488.3779, 919.2073
488.8600, 917.0186
489.3422, 916.9996
489.8243, 918.2377
490.3064, 919.6686
490.7885, 926.0053
491.2706, 938.5515
491.7527, 955.6975
492.2349, 973.7886
492.7170, 992.4792
493.1991, 1014.164
493.6812, 1039.767
494.1633, 1069.075
494.6454, 1101.949
495.1276, 1138.061
495.6097, 1176.961
496.0918, 1217.420
496.5739, 1260.457
497.0560, 1306.318
497.5381, 1355.605
498.0203, 1408.024
498.5024, 1466.426
498.9845, 1528.136
499.4666, 1588.767
499.9487, 1644.580
500.4308, 1699.447
500.9130, 1756.217
501.3951, 1814.751
501.8772, 1871.465
502.3593, 1926.354
502.8414, 1977.540
503.3235, 2024.320
503.8057, 2067.446
504.2878, 2104.462
504.7699, 2135.091
505.2520, 2160.019
505.7341, 2180.616
506.2162, 2198.264
506.6984, 2208.476
507.1805, 2210.044
507.6626, 2202.992
508.1447, 2187.992
508.6268, 2164.873
509.1089, 2134.444
509.5911, 2095.814
510.0732, 2049.506
510.5553, 2001.945
511.0374, 1954.174
511.5195, 1903.186
512.0016, 1843.968
512.4838, 1777.868
512.9659, 1710.995
513.4480, 1644.768
513.9301, 1577.855
514.4122, 1507.528
514.8943, 1434.599
515.3765, 1362.452
515.8586, 1291.769
516.3407, 1223.136
516.8228, 1158.002
517.3049, 1096.425
517.7870, 1036.302
518.2692, 976.0810
518.7513, 917.8969
519.2334, 864.0721
519.7155, 818.5925
520.1976, 772.9551
520.6797, 726.1443
521.1619, 678.7686
521.6440, 632.5039
522.1261, 586.1865
522.6082, 543.9913
523.0903, 508.1288
523.5724, 478.7162
524.0546, 449.7231
524.5367, 421.2081
525.0188, 393.6040
525.5009, 367.3544
525.9830, 342.2366
526.4651, 316.8489
526.9473, 290.2347
527.4294, 264.5065
527.9115, 243.7759
528.3936, 227.0076
528.8757, 210.4776
529.3578, 192.3226
529.8400, 173.7088
530.3221, 155.4810
530.8042, 137.9485
531.2863, 121.6862
531.7684, 107.3731
532.2505, 94.32720
532.7327, 82.46393
533.2148, 71.98518
533.6969, 62.01506
534.1790, 52.66624
534.6611, 43.75205
535.1432, 35.03844
535.6254, 24.48621
536.1075, 16.44776
536.5896, 12.64167
537.0717, 11.75231
537.5538, 9.020531
538.0359, 3.298836
538.5181, 1.722464
539.0002, 4.287243
539.4823, 4.389128
539.9644, 5.329657
540.4465, 7.429008
540.9286, 8.562056
541.4108, 6.337534
541.8929, 1.509071
542.3750, 2.806847
542.8571, 6.084953
543.3392, 9.077564
543.8214, 12.35209
544.3035, 16.00692
544.7856, 20.32448
545.2677, 26.18619
545.7498, 32.08852
546.2319, 36.77769
546.7141, 40.19982
547.1962, 43.70765
547.6783, 46.91796
548.1604, 51.28775
548.6425, 57.94717
549.1246, 67.99385
549.6068, 77.22089
550.0889, 84.85162
550.5710, 91.82683
551.0531, 99.06136
551.5352, 107.2016
552.0173, 114.1157
552.4995, 118.5769
552.9816, 122.2590
553.4637, 129.9751
553.9458, 142.5452
554.4279, 154.1465
554.9100, 161.6975
555.3922, 166.3121
555.8743, 172.6370
556.3564, 180.6457
556.8385, 189.4063
557.3206, 199.1390
557.8027, 208.7881
558.2849, 216.4936
558.7670, 221.7315
559.2491, 226.3925
559.7312, 232.3082
560.2133, 238.4609
560.6954, 243.5041
561.1776, 247.0683
561.6597, 249.5402
562.1418, 250.9025
562.6239, 251.1951
563.1060, 250.5583
563.5881, 248.8283
564.0703, 246.0068
564.5524, 242.2697
565.0345, 237.7101
565.5166, 230.9954
565.9987, 221.1890
566.4808, 210.7540
566.9630, 201.7169
567.4451, 194.3481
567.9272, 185.6230
568.4093, 174.8485
568.8914, 163.7681
569.3735, 155.1257
569.8557, 148.4374
570.3378, 140.8779
570.8199, 131.1599
571.3020, 120.4669
571.7841, 110.2485
572.2662, 100.5248
572.7484, 91.29713
573.2305, 81.74604
573.7126, 73.16907
574.1947, 66.78374
574.6768, 62.88221
575.1589, 58.68975
575.6411, 52.67279
576.1232, 46.55630
576.6053, 41.70681
577.0874, 39.68172
577.5695, 36.42752
578.0516, 31.05296
578.5338, 25.08880
579.0159, 20.77913
579.4980, 18.66328
579.9801, 16.60048
580.4622, 13.94591
580.9443, 11.13549
581.4265, 10.20290
581.9086, 11.15081
582.3907, 11.11064
582.8728, 7.318742
583.3549, 1.601262
583.8370, 2.185748
584.3192, 3.966385
584.8013, 4.949518
585.2834, 6.147547
585.7655, 6.499015
586.2476, 6.504269
586.7297, 4.455223
587.2118, 2.635756
587.6939, 1.989161
588.1760, 2.295170
588.6581, 3.281642
589.1403, 4.796053
589.6224, 2.476810
590.1045, 2.764991
590.5866, 4.614025
591.0687, 4.274674
591.5508, 0.4873940
592.0330, 2.594991
592.5151, 3.038148
592.9972, 1.163476
593.4793, 0.7031890
593.9614, 1.792906
594.4435, 3.152027
594.9257, 3.750037
595.4078, 3.765512
595.8899, 3.591025
596.3720, 3.112033
596.8541, 3.208443
597.3362, 6.146989
597.8184, 9.889843
598.3005, 11.35467
598.7826, 7.961129
599.2647, 4.113915
599.7468, 1.619245
600.2289, 0.2051740
600.7111, 0.4834790
601.1932, 0.3063830
601.6753, 1.000163
602.1574, 1.449012
602.6395, 1.784194
603.1216, 0.8471770
603.6038, 2.033005
604.0859, 0.3011010
604.5680, 0.4882470
605.0501, 0.8129170
605.5322, 1.208625
606.0143, 0.5833830
606.4965, 0.3500520
606.9786, 0.9207910
607.4607, 1.058523
607.9428, 1.135478
608.4249, 1.417732
608.9070, 1.812733
609.3892, 1.523256
609.8713, 1.002081
610.3534, 0.8190340
610.8355, 2.470737
611.3176, 3.772474
611.7997, 3.070276
612.2819, 2.872427
612.7640, 4.635605
613.2461, 4.104107
613.7282, 3.653431
614.2103, 4.459737
614.6924, 6.662953
615.1746, 6.865825
615.6567, 4.059194
616.1388, 3.310863
616.6209, 4.068514
617.1030, 2.500782
617.5851, 2.740031
618.0673, 3.284136
618.5494, 4.424873
619.0315, 3.020287
619.5136, 5.266912
619.9957, 7.705255
620.4778, 8.988512
620.9600, 8.989476
621.4421, 6.576915
621.9242, 2.867624
622.4063, 5.525245
622.8884, 5.268121
623.3705, 4.903708
623.8527, 5.685851
624.3348, 7.450226
624.8169, 8.971344
625.2990, 10.40753
625.7811, 11.19091
626.2632, 10.85493
626.7454, 9.257372
627.2275, 8.383110
627.7096, 8.146073
628.1917, 8.867679
628.6738, 11.90253
629.1559, 16.84012
629.6381, 18.03066
630.1202, 14.37954
630.6023, 10.19817
631.0844, 10.65452
631.5665, 14.16117
632.0486, 17.36292
632.5308, 18.91283
633.0129, 20.48888
633.4950, 24.96939
633.9771, 30.08724
634.4592, 31.59257
634.9413, 23.05836
635.4235, 15.99440
635.9056, 15.15082
636.3877, 19.42151
636.8698, 21.03452
637.3519, 18.42883
637.8340, 15.58683
638.3162, 14.11597
638.7983, 13.96643
639.2804, 13.23419
639.7625, 11.54006
640.2446, 11.31926
640.7267, 16.79333
641.2089, 25.52001
641.6910, 28.42494
642.1731, 24.25427
642.6552, 18.27472
643.1373, 14.11524
643.6194, 11.54447
644.1016, 10.46782
644.5837, 12.28819
645.0658, 13.47630
645.5479, 11.36912
646.0300, 7.815288
646.5121, 5.888634
646.9943, 7.974463
647.4764, 9.367464
647.9585, 9.256630
648.4406, 7.949982
648.9227, 6.367826
649.4048, 4.137209
649.8870, 2.900459
650.3691, 3.890132
650.8512, 6.573922
651.3333, 8.287875
651.8154, 8.954907
652.2975, 8.528209
652.7797, 6.094332
653.2618, 3.047088
653.7439, 1.572030
654.2260, 1.909564
654.7081, 2.256301
655.1902, 0.8752060
655.6724, 0.8972890
656.1545, 1.597017
656.6366, 0.3347350
657.1187, 1.686672
657.6008, 1.434021
658.0829, 0.5065510
658.5651, 3.5004999E-02
659.0472, 0.5987650
659.5293, 0.1153960
660.0114, 2.947834
660.4935, 0.5670580
660.9756, 0.7450650
661.4578, 0.2813880
661.9399, 1.409911
662.4220, 1.841089
662.9041, 2.018080
663.3862, 2.238767
663.8683, 2.651406
664.3505, 3.875148
664.8326, 2.284652
665.3147, 1.098218
665.7968, 0.4310530
666.2789, 4.141376
666.7610, 4.437738
667.2432, 5.572533
667.7253, 3.640282
668.2074, 3.915952
668.6895, 5.417162
669.1716, 6.151117
669.6537, 1.898184
670.1359, 11.17887
670.6180, 17.74315
671.1001, 21.63463
671.5822, 23.16797
672.0643, 22.10463
672.5464, 19.53827
673.0286, 16.10090
673.5107, 12.58010
673.9928, 10.19763
674.4749, 8.972809
674.9570, 9.101583
675.4391, 12.38965
675.9213, 17.14354
676.4034, 20.39117
676.8855, 20.21750
677.3676, 19.09155
677.8497, 17.14430
678.3318, 14.73109
678.8140, 12.64954
679.2961, 10.89643
679.7782, 10.01509
680.2603, 10.30590
680.7424, 11.41118
681.2245, 13.17228
681.7067, 15.68653
682.1888, 17.69571
682.6709, 17.60538
683.1530, 16.75931
683.6351, 17.80229
684.1172, 20.66572
684.5994, 23.16934
685.0815, 23.87697
685.5636, 23.74775
686.0457, 23.58955
686.5278, 23.71328
687.0099, 23.14485
687.4921, 20.01416
687.9742, 17.26017
688.4563, 17.28816
688.9384, 21.69338
689.4205, 24.09570
689.9026, 23.79250
690.3848, 22.24483
690.8669, 20.85582
691.3490, 19.74690
691.8311, 20.42018
692.3132, 23.84882
692.7953, 27.44639
693.2775, 27.69388
693.7596, 25.85641
694.2417, 24.51044
694.7238, 24.77423
695.2059, 25.61182
695.6880, 27.60156
696.1702, 29.87640
696.6523, 30.09459
697.1344, 25.64428
697.6165, 21.94213
698.0986, 20.43396
698.5807, 20.73317
699.0629, 20.25368
699.5450, 18.68103
700.0271, 17.77041
700.5092, 19.09565
700.9913, 21.65364
701.4734, 21.65606
701.9556, 19.27930
702.4377, 16.91518
702.9198, 15.92921
703.4019, 15.98970
703.8840, 17.27724
704.3661, 19.88599
704.8483, 21.44932
705.3304, 19.98691
705.8125, 17.90128
706.2946, 16.87744
706.7767, 17.53630
707.2589, 17.66130
707.7410, 17.22168
708.2231, 16.33002
708.7052, 14.70491
709.1873, 12.29434
709.6694, 11.36323
710.1516, 12.43237
710.6337, 13.81034
711.1158, 12.91252
711.5979, 10.80896
712.0800, 9.934550
712.5621, 11.34762
713.0443, 13.18771
713.5264, 14.32008
714.0085, 15.00825
714.4906, 15.78246
714.9727, 17.24094
715.4548, 17.82114
715.9370, 16.82003
716.4191, 14.98308
716.9012, 13.97165
717.3833, 13.90593
717.8654, 14.02642
718.3475, 14.67359
718.8297, 15.40766
719.3118, 15.16324
719.7939, 14.01816
720.2760, 12.90585
720.7581, 12.30826
721.2402, 11.98365
721.7224, 11.62134
722.2045, 11.22749
722.6866, 11.22414
723.1687, 12.41631
723.6508, 13.25044
724.1329, 12.38896
724.6151, 9.988209
725.0972, 8.907003
725.5793, 9.986496
726.0614, 11.32975
726.5435, 12.04245
727.0256, 12.20055
727.5078, 12.24506
727.9899, 11.79455
728.4720, 11.75508
728.9541, 13.71178
729.4362, 16.30962
729.9183, 16.44102
730.4005, 13.69232
730.8826, 11.95861
731.3647, 14.63941
731.8468, 18.69592
732.3289, 21.79564
732.8110, 23.72739
733.2932, 24.16168
733.7753, 21.54995
734.2574, 18.96776
734.7395, 19.31543
735.2216, 23.22859
735.7037, 26.29273
736.1859, 28.18049
736.6680, 29.42968
737.1501, 30.73507
737.6322, 31.63692
738.1143, 32.71581
738.5964, 32.62221
739.0786, 32.58484
739.5607, 32.28265
740.0428, 32.83443
740.5249, 35.76374
741.0070, 46.48871
741.4891, 53.49509
741.9713, 51.45560
742.4534, 45.84872
742.9355, 44.84005
743.4176, 50.19601
743.8997, 54.55552
744.3818, 56.39112
744.8640, 56.68794
745.3461, 57.19229
745.8282, 57.89551
746.3103, 58.72399
746.7924, 59.44863
747.2745, 60.52288
747.7567, 62.93640
748.2388, 66.09066
748.7209, 68.45065
749.2030, 69.14850
749.6851, 69.30708
750.1672, 68.61781
750.6494, 67.63080
751.1315, 68.43982
751.6136, 71.69556
752.0957, 75.41599
752.5778, 79.62925
753.0599, 83.62311
753.5421, 83.71401
754.0242, 80.18031
754.5063, 77.77074
754.9884, 79.96098
755.4705, 84.34008
755.9526, 88.48311
756.4348, 92.30051
756.9169, 95.30213
757.3990, 95.13670
757.8811, 95.26194
758.3632, 98.00249
758.8453, 103.4655
759.3275, 107.9424
759.8096, 111.1108
760.2917, 113.9236
760.7738, 116.9549
761.2559, 119.9662
761.7380, 120.9081
762.2202, 119.6556
762.7023, 119.1938
763.1844, 122.5875
763.6665, 127.5953
764.1486, 131.7371
764.6307, 135.0470
765.1129, 138.0472
765.5950, 142.1814
766.0771, 145.4732
766.5592, 145.9452
767.0413, 142.5995
767.5234, 141.8757
768.0056, 145.1539
768.4877, 149.0736
768.9698, 151.5903
769.4519, 152.7204
769.9340, 153.0061
770.4161, 152.3726
770.8983, 152.1362
771.3804, 153.7782
771.8625, 156.5187
772.3446, 159.7044
772.8267, 163.3772
773.3088, 165.0565
773.7910, 160.6999
774.2731, 155.7915
774.7552, 154.8457
775.2373, 160.3473
775.7194, 163.6931
776.2015, 164.5750
776.6837, 163.8317
777.1658, 161.7587
777.6479, 158.5224
778.1300, 157.0680
778.6121, 157.3734
779.0942, 158.1695
779.5764, 158.2724
780.0585, 158.0909
780.5406, 158.7140
781.0227, 160.6912
781.5048, 161.4617
781.9869, 158.4487
782.4691, 154.4627
782.9512, 152.2511
783.4332, 152.6686
783.9153, 153.4978
784.3975, 155.2609
784.8796, 156.4673
785.3617, 154.8165
785.8438, 150.6541
786.3259, 148.0783
786.8080, 147.7914
787.2902, 148.1812
787.7723, 147.9325
788.2544, 147.0965
788.7365, 145.6809
789.2186, 143.4037
789.7007, 141.7058
790.1829, 141.5555
790.6650, 142.0441
791.1471, 142.2047
791.6292, 142.3733
792.1113, 141.3240
792.5934, 138.7585
793.0756, 135.4829
793.5577, 132.2759
794.0398, 129.1891
794.5219, 126.6223
795.0040, 124.9411
795.4861, 122.5270
795.9683, 116.5812
796.4504, 109.6715
796.9325, 105.3598
797.4146, 107.2604
797.8967, 106.7265
798.3788, 98.92737
798.8610, 89.10735
799.3431, 82.74659
799.8252, 80.37173
800.3073, 78.67236
800.7894, 77.62051
801.2715, 76.41422
801.7537, 73.79086
802.2358, 69.88200
802.7179, 64.69659
803.2000, 57.73933
803.6821, 51.95862
804.1642, 51.27472
804.6464, 52.33203
805.1285, 50.98942
805.6106, 43.77802
806.0927, 38.56367
806.5748, 37.88384
807.0569, 37.88781
807.5391, 33.50156
808.0212, 23.66008
808.5033, 18.70437
808.9854, 20.57660
809.4675, 24.23036
809.9496, 23.41294
810.4318, 19.82552
810.9139, 17.24531
811.3960, 16.92731
811.8781, 16.19121
812.3602, 13.73512
812.8423, 10.12056
813.3245, 5.895351
813.8066, 1.202767
814.2887, 4.789156
814.7708, 3.633339
815.2529, 0.9077870
815.7350, 0.1739190
816.2172, 0.2293510
816.6993, 1.081389
817.1814, 2.552859
817.6635, 3.882691
818.1456, 3.353208
818.6277, 2.209363
819.1099, 2.674337
819.5920, 1.723497
820.0741, 0.3625030
820.5562, 3.337803
821.0383, 0.2686420
821.5204, 0.8540080
822.0026, 2.618066
822.4847, 1.172479
822.9668, 3.170619
823.4489, 3.595071
823.9310, 1.479701
824.4131, 2.286072
824.8953, 1.973492
825.3774, 2.759643
825.8595, 1.785791
826.3416, 1.989957
826.8237, 2.188315
827.3058, 1.169475
827.7880, 0.3955340
828.2701, 0.1849230
828.7522, 0.6250600
829.2343, 1.307140
829.7164, 1.964698
830.1985, 1.276690
830.6807, 0.2207080
831.1628, 1.043381
831.6449, 2.036232
832.1270, 2.258458
832.6091, 1.927340
833.0912, 0.7986080
833.5734, 1.213576
834.0555, 1.225530
834.5376, 3.635110
835.0197, 8.586919
835.5018, 7.987025
835.9839, 0.5161500
836.4661, 0.6908070
836.9482, 1.023919
837.4303, 1.694118
837.9124, 2.726986
838.3945, 2.225452
838.8766, 0.8084040
839.3588, 2.6144000E-02
839.8409, 1.943341
840.3230, 2.016510
840.8051, 1.472203
841.2872, 1.232334
841.7693, 1.384473
842.2515, 1.951709
842.7336, 3.843173
843.2157, 5.151557
843.6978, 5.035424
844.1799, 3.594990
844.6620, 1.868214
845.1442, 0.2457460
845.6263, 1.212856
846.1084, 1.682650
846.5905, 5.618494
847.0726, 6.260645
847.5547, 4.227629
848.0369, 2.587921
848.5190, 3.067677
849.0011, 3.996262
849.4832, 4.886869
849.9653, 5.651602
850.4474, 5.888602
850.9296, 5.600915
851.4117, 4.746422
851.8938, 2.824876
852.3759, 0.7595630
852.8580, 1.813985
853.3401, 5.206867
853.8223, 7.305630
854.3044, 5.081824
854.7865, 2.222828
855.2686, 1.452218
855.7507, 1.980355
856.2328, 1.820073
856.7150, 3.565678
857.1971, 4.490994
857.6792, 1.208832
858.1613, 6.518856
858.6434, 7.750913
859.1255, 5.072965
859.6077, 4.190212
860.0898, 7.296862
860.5719, 11.24545
861.0540, 12.30772
861.5361, 11.65648
862.0182, 11.31497
862.5004, 12.58296
862.9825, 13.16456
863.4646, 11.90694
863.9467, 9.993921
864.4288, 8.622410
864.9109, 7.852953
865.3931, 7.151609
865.8752, 6.320136
866.3573, 6.117074
866.8394, 8.742497
867.3215, 12.45849
867.8036, 12.98086
868.2858, 8.795954
868.7679, 5.533393
869.2500, 8.009220
869.7321, 11.57500
870.2142, 11.82544
870.6964, 7.244459
871.1785, 4.276487
871.6606, 3.104013
872.1427, 2.815748
872.6248, 3.912708
873.1069, 5.866468
873.5891, 5.099336
874.0712, 1.515604
874.5533, 3.241296
875.0354, 1.860124
875.5175, 6.096354
875.9996, 9.398584
876.4818, 11.55422
876.9639, 12.65338
877.4460, 12.43721
877.9281, 11.77877
878.4102, 10.99613
878.8923, 10.25849
879.3745, 8.053895
879.8566, 4.327026
880.3387, 1.604046
880.8208, 2.437141
881.3029, 3.864647
881.7850, 2.273569
882.2672, 0.7675110
882.7493, 2.803905
883.2314, 1.301998
883.7135, 0.1225350
884.1956, 1.5002000E-02
884.6777, 0.6216170
885.1599, 2.129199
885.6420, 4.661094
886.1241, 6.192085
886.6062, 5.330282
887.0883, 4.130113
887.5704, 6.324241
888.0526, 10.17002
888.5347, 12.23311
889.0168, 9.276409
889.4989, 7.533322
889.9810, 10.90415
890.4631, 15.30547
890.9453, 15.42531
891.4274, 9.412076
891.9095, 7.020060
892.3916, 9.139359
892.8737, 12.60014
893.3558, 14.87342
893.8380, 16.51642
894.3201, 18.08627
894.8022, 19.06388
895.2843, 19.37163
895.7664, 18.76697
896.2485, 17.80894
896.7307, 16.65618
897.2128, 15.10770
897.6949, 15.33982
898.1770, 17.85170
898.6591, 19.98831
899.1412, 18.75231
899.6234, 15.94786
900.1055, 17.69159
900.5876, 23.46951
901.0697, 28.77812
901.5518, 31.68608
902.0339, 32.38329
902.5161, 29.37231
902.9982, 23.32426
903.4803, 20.65333
903.9624, 22.82985
904.4445, 25.62180
904.9266, 27.61371
905.4088, 29.24967
905.8909, 32.25163
906.3730, 36.16654
906.8551, 38.79556
907.3372, 38.88701
907.8193, 37.93759
908.3015, 35.28131
908.7836, 32.67399
909.2657, 33.38288
909.7478, 41.24220
910.2299, 45.35949
910.7120, 44.15825
911.1942, 41.20184
911.6763, 41.16983
912.1584, 43.32368
912.6405, 44.13280
913.1226, 43.05241
913.6047, 41.55754
914.0869, 40.60161
914.5690, 39.59811
915.0511, 38.13465
915.5332, 36.06114
916.0153, 35.23578
916.4974, 35.77481
916.9796, 36.66032
917.4617, 37.73348
917.9438, 38.95365
918.4259, 38.32339
918.9080, 35.99946
919.3901, 34.82733
919.8723, 39.10765
920.3544, 43.25986
920.8365, 41.91216
921.3186, 36.05952
921.8007, 32.03804
922.2828, 31.96746
922.7650, 31.57289
923.2471, 29.35126
923.7292, 26.59265
924.2113, 27.74492
924.6934, 32.05126
925.1755, 33.32257
925.6577, 27.84709
926.1398, 21.87955
926.6219, 21.39986
927.1040, 23.78397
927.5861, 25.07596
928.0682, 23.49850
928.5504, 21.74874
929.0325, 19.48142
929.5146, 17.55863
929.9967, 17.40836
930.4788, 18.74734
930.9609, 18.34988
931.4431, 15.74405
931.9252, 13.59402
932.4073, 15.69577
932.8894, 18.63441
933.3715, 19.09936
933.8536, 16.41410
934.3358, 14.14315
934.8179, 12.55558
935.3000, 11.44302
935.7821, 10.86313
936.2642, 10.66423
936.7463, 10.17978
937.2285, 9.440436
937.7106, 8.652483
938.1927, 8.286729
938.6748, 7.726390
939.1569, 6.167931
939.6390, 3.842665
940.1212, 1.402505
940.6033, 1.095998
941.0854, 3.001300
941.5675, 3.863540
942.0496, 4.837278
942.5317, 3.137259
943.0139, 2.206654
943.4960, 5.438516
943.9781, 5.813403
944.4602, 4.932278
944.9423, 2.491488
945.4244, 0.2054720
945.9066, 0.1921570
946.3887, 4.024407
946.8708, 4.726220
947.3529, 1.151354
947.8350, 2.930163
948.3171, 5.081559
948.7993, 5.812197
949.2814, 6.587505
949.7635, 4.519797
950.2456, 3.458619
950.7277, 6.532660
951.2098, 5.890966
951.6920, 7.121053
952.1741, 2.215260
952.6562, 1.431633
953.1383, 3.578207
953.6204, 4.762434
954.1025, 4.723568
954.5847, 4.453317
955.0668, 6.259254
955.5489, 9.171114
956.0310, 10.34175
956.5131, 8.221395
956.9952, 6.791060
957.4774, 8.766901
957.9595, 11.95287
958.4416, 14.48295
958.9237, 16.32081
959.4058, 17.32887
959.8879, 17.24920
960.3701, 17.47309
960.8522, 19.62522
961.3343, 22.64095
961.8164, 23.72251
962.2985, 23.28255
962.7806, 24.15483
963.2628, 29.24875
963.7449, 34.14555
964.2270, 36.40208
964.7091, 37.26093
965.1912, 41.28908
965.6733, 49.12732
966.1555, 53.22524
966.6376, 50.70894
967.1197, 45.93768
967.6018, 42.95984
968.0839, 42.31134
968.5660, 45.38665
969.0482, 55.32716
969.5303, 62.77081
970.0124, 64.95770
970.4945, 65.18167
970.9766, 65.58501
971.4587, 66.16143
971.9409, 66.36349
972.4230, 66.12222
972.9051, 67.50352
973.3872, 74.20566
973.8693, 81.64339
974.3514, 84.71866
974.8336, 83.88161
975.3157, 83.73383
975.7978, 84.92351
976.2799, 87.14891
976.7620, 90.63276
977.2441, 94.83680
977.7263, 99.11757
978.2084, 103.2057
978.6905, 105.2017
979.1726, 104.0841
979.6547, 102.1204
980.1368, 100.1093
980.6190, 98.68750
981.1010, 98.91589
981.5831, 102.4797
982.0652, 102.6486
982.5474, 98.15591
983.0295, 93.77390
983.5116, 94.56575
983.9937, 98.20224
984.4758, 97.11089
984.9579, 91.86598
985.4401, 88.03935
985.9222, 90.57260
986.4043, 93.20854
986.8864, 92.66456
987.3685, 89.86715
987.8506, 87.14311
988.3328, 84.30210
988.8149, 83.02519
989.2970, 84.09291
989.7791, 85.88451
990.2612, 86.67981
990.7433, 86.52813
991.2255, 85.40878
991.7076, 83.03582
992.1897, 80.53723
992.6718, 77.70804
993.1539, 75.35828
993.6360, 74.23624
994.1182, 74.30492
994.6003, 73.66804
995.0824, 72.30984
995.5645, 70.32986
996.0466, 66.97636
996.5287, 63.68141
997.0109, 61.89357
997.4930, 61.26514
997.9751, 60.40330
998.4572, 58.76836
998.9393, 57.47215
999.4214, 57.31458
999.9036, 56.76981
1000.386, 52.19301
1000.868, 45.16576
1001.350, 41.24385
1001.832, 42.26532
1002.314, 43.16705
1002.796, 39.81262
1003.278, 35.95997
1003.760, 34.80740
1004.243, 36.48709
1004.725, 36.27974
1005.207, 34.08766
1005.689, 31.47519
1006.171, 28.95679
1006.653, 26.88745
1007.135, 26.28399
1007.617, 26.65817
1008.100, 26.27135
1008.582, 23.03508
1009.064, 20.44827
1009.546, 19.16829
1010.028, 18.99666
1010.510, 19.28893
1010.992, 19.87893
1011.474, 19.73613
1011.956, 18.72821
1012.439, 17.54402
1012.921, 17.28086
1013.403, 16.80104
1013.885, 14.48483
1014.367, 10.19205
1014.849, 8.471788
1015.331, 10.63103
1015.813, 12.47919
1016.296, 12.04975
1016.778, 10.70064
1017.260, 12.01365
1017.742, 15.07959
1018.224, 17.23170
1018.706, 16.67760
1019.188, 16.36855
1019.670, 19.07785
1020.152, 21.43779
1020.635, 19.13551
1021.117, 10.41747
1021.599, 8.721296
1022.081, 14.78637
1022.563, 21.66608
1023.045, 24.69324
1023.527, 24.84865
1024.009, 21.73354
1024.492, 16.23590
1024.974, 13.33374
1025.456, 17.06413
1025.938, 19.15503
1026.420, 17.44661
1026.902, 13.90154
1027.384, 11.90896
1027.866, 11.37172
1028.349, 12.27320
1028.831, 15.17492
1029.313, 16.98523
1029.795, 14.52407
1030.277, 11.08381
1030.759, 9.422022
1031.241, 9.720663
1031.723, 9.930815
1032.205, 9.982265
1032.688, 10.43509
1033.170, 12.07972
1033.652, 13.91882
1034.134, 13.72473
1034.616, 12.51353
1035.098, 12.82699
1035.580, 18.34955
1036.062, 21.35562
1036.544, 19.93126
1037.027, 16.85602
1037.509, 15.40600
1037.991, 15.35368
1038.473, 15.17183
1038.955, 14.71005
1039.437, 14.67647
1039.919, 15.60722
1040.401, 17.10728
1040.884, 19.69130
1041.366, 22.90883
1041.848, 23.27940
1042.330, 20.01321
1042.812, 17.57134
1043.294, 17.48989
1043.776, 18.44160
1044.258, 18.96125
1044.740, 18.97023
1045.223, 18.08182
1045.705, 15.34179
1046.187, 14.27174
1046.669, 16.63329
1047.151, 19.49794
1047.633, 20.70501
1048.115, 20.48548
1048.597, 21.53803
1049.079, 23.56966
1049.562, 24.76900
1050.044, 22.66717
1050.526, 21.25303
1051.008, 23.88204
1051.490, 28.69448
1051.972, 31.68624
1052.454, 32.61404
1052.936, 32.16725
1053.419, 30.09625
1053.901, 28.05190
1054.383, 28.10695
1054.865, 29.17742
1055.347, 30.08960
1055.829, 30.71127
1056.311, 30.22026
1056.793, 27.91417
1057.276, 25.30836
1057.758, 22.37039
1058.240, 19.96878
1058.722, 21.11172
1059.204, 25.00024
1059.686, 28.11991
1060.168, 29.61723
1060.650, 29.43298
1061.132, 24.96118
1061.615, 20.46136
1062.097, 20.95586
1062.579, 27.43533
1063.061, 29.52676
1063.543, 26.95243
1064.025, 24.12739
1064.507, 24.70752
1064.989, 26.20943
1065.471, 25.57071
1065.954, 23.53034
1066.436, 21.60318
1066.918, 20.27592
1067.400, 19.48175
1067.882, 19.47296
1068.364, 19.95965
1068.846, 20.56523
1069.328, 21.28152
1069.811, 22.55076
1070.293, 24.20390
1070.775, 24.92646
1071.257, 22.35449
1071.739, 20.35759
1072.221, 20.91505
1072.703, 23.18657
1073.185, 25.04633
1073.667, 26.50676
1074.150, 26.02985
1074.632, 22.38317
1075.114, 18.90275
1075.596, 19.80546
1076.078, 22.23121
1076.560, 22.83784
1077.042, 20.79039
1077.524, 19.88011
1078.006, 20.53057
1078.489, 20.88046
1078.971, 19.42389
1079.453, 17.48314
1079.935, 18.48146
1080.417, 21.17920
1080.899, 22.20706
1081.381, 17.91882
1081.863, 15.22581
1082.345, 15.41320
1082.828, 16.80150
1083.310, 18.12499
1083.792, 19.30980
1084.274, 19.60664
1084.756, 19.06472
1085.238, 18.65081
1085.720, 19.87239
1086.202, 20.47710
1086.685, 18.69213
1087.167, 15.49457
1087.649, 12.75153
1088.131, 10.23454
1088.613, 9.568781
1089.095, 11.26499
1089.577, 13.45306
1090.059, 14.42117
1090.542, 14.79190
1091.024, 15.11590
1091.506, 15.05459
1091.988, 14.75509
1092.470, 14.14245
1092.952, 13.52832
1093.434, 12.87976
1093.916, 12.49793
1094.398, 13.48384
1094.880, 15.11142
1095.363, 15.69633
1095.845, 14.17362
1096.327, 12.80892
1096.809, 11.90238
1097.291, 11.56081
1097.773, 12.11549
1098.255, 13.36392
1098.737, 14.02324
1099.220, 14.04975
1099.702, 13.11702
1100.184, 9.633366
1100.666, 6.821687
1101.148, 7.076509
1101.630, 8.501581
1102.112, 8.437348
1102.594, 6.842175
1103.077, 4.867311
1103.559, 2.414595
1104.041, 2.7942000E-02
1104.523, 2.722187
1105.005, 4.829041
1105.487, 5.670436
1105.969, 5.240006
1106.451, 3.565262
1106.933, 0.2407610
1107.416, 2.310207
1107.898, 1.571908
1108.380, 8.9132003E-02
1108.862, 0.5621710
1109.344, 0.1540750
1109.826, 0.8881370
1110.308, 2.570692
1110.790, 3.610503
1111.272, 2.951414
1111.755, 2.847077
1112.237, 4.719609
1112.719, 7.043983
1113.201, 4.966176
1113.683, 2.9549999E-02
1114.165, 3.347578
1114.647, 3.131523
1115.129, 2.866773
1115.612, 2.491082
1116.094, 0.4912200
1116.576, 0.2809500
1117.058, 1.712232
1117.540, 2.010327
1118.022, 1.329342
1118.504, 1.856562
1118.986, 0.5579870
1119.469, 4.620362
1119.951, 3.724802
1120.433, 0.1452290
1120.915, 2.320700
1121.397, 0.8429090
1121.879, 2.330238
1122.361, 1.998874
1122.843, 0.8610140
1123.325, 1.672182
1123.807, 0.8534470
1124.290, 2.154789
1124.772, 1.776602
1125.254, 5.002148
1125.736, 7.438470
1126.218, 8.629506
1126.700, 8.536932
1127.182, 7.117150
1127.664, 3.334400
1128.147, 1.358933
1128.629, 1.665616
1129.111, 3.593637
1129.593, 4.075910
1130.075, 2.442139
1130.557, 6.5373003E-02
1131.039, 1.009460
1131.521, 4.368666
1132.004, 4.785888
1132.486, 3.026628
1132.968, 1.172060
1133.450, 0.4212000
1133.932, 0.2906800
1134.414, 1.884108
1134.896, 3.403884
1135.378, 5.156824
1135.860, 4.901350
1136.343, 6.181647
1136.825, 3.759677
1137.307, 1.717201
1137.789, 0.1849590
1138.271, 0.4220720
1138.753, 6.333884
1139.235, 12.16133
1139.717, 11.93797
1140.199, 5.502182
1140.682, 4.939291
1141.164, 10.17141
1141.646, 14.86699
1142.128, 15.67105
1142.610, 14.58738
1143.092, 12.58184
1143.574, 10.09059
1144.056, 7.182202
1144.539, 3.090061
1145.021, 2.610365
1145.503, 6.024407
1145.985, 9.802119
1146.467, 12.75549
1146.949, 13.84185
1147.431, 9.691319
1147.913, 2.849318
1148.396, 1.753889
1148.878, 5.611558
1149.360, 9.200898
1149.842, 10.21994
1150.324, 10.65158
1150.806, 13.31316
1151.288, 15.93633
1151.770, 13.90098
1152.252, 8.004698
1152.734, 5.392612
1153.217, 9.634671
1153.699, 14.01725
1154.181, 17.77497
1154.663, 20.40637
1155.145, 21.01604
1155.627, 20.07983
1156.109, 18.43430
1156.591, 16.18354
1157.074, 13.63629
1157.556, 9.341614
1158.038, 7.012524
1158.520, 8.560155
1159.002, 11.67835
1159.484, 10.11137
1159.966, 5.750219
1160.448, 5.250155
1160.931, 10.97519
1161.413, 15.72917
1161.895, 15.15001
1162.377, 13.73884
1162.859, 13.64457
1163.341, 14.48334
1163.823, 14.35242
1164.305, 13.55047
1164.787, 13.29311
1165.270, 13.95343
1165.752, 14.51447
1166.234, 14.42840
1166.716, 13.97751
1167.198, 13.20242
1167.680, 12.17335
1168.162, 12.51838
1168.644, 14.11278
1169.126, 15.69481
1169.609, 17.60604
1170.091, 17.96080
1170.573, 13.04320
1171.055, 7.726033
1171.537, 7.833693
1172.019, 13.90657
1172.501, 16.16170
1172.983, 14.61137
1173.466, 12.53384
1173.948, 11.94738
1174.430, 11.69513
1174.912, 11.34318
1175.394, 10.64004
1175.876, 8.717665
1176.358, 4.829246
1176.840, 5.891252
1177.323, 12.17556
1177.805, 17.24976
1178.287, 15.21695
1178.769, 10.75183
1179.251, 6.585901
1179.733, 3.569067
1180.215, 4.050628
1180.697, 9.184743
1181.179, 11.99578
1181.661, 11.82235
1182.144, 10.62251
1182.626, 9.867340
1183.108, 9.389174
1183.590, 9.601693
1184.072, 10.26602
1184.554, 10.03620
1185.036, 8.668707
1185.518, 7.705910
1186.001, 7.251187
1186.483, 7.124209
1186.965, 6.480142
1187.447, 5.995308
1187.929, 6.797645
1188.411, 8.662616
1188.893, 9.235142
1189.375, 8.210577
1189.858, 6.568889
1190.340, 4.395402
1190.822, 2.560433
1191.304, 2.058934
1191.786, 2.521904
1192.268, 3.766206
1192.750, 5.690619
1193.232, 5.972916
1193.714, 3.937679
1194.197, 1.864701
1194.679, 0.1029800
1195.161, 0.6002490
1195.643, 1.641122
1196.125, 5.225961
1196.607, 8.165810
1197.089, 9.995908
1197.571, 9.866787
1198.053, 6.899773
1198.536, 4.830059
1199.018, 5.545235
1199.500, 6.796824
1199.982, 4.386907
1200.464, 0.4918820
1200.946, 0.5736960
1201.428, 0.3757440
1201.910, 0.7872000
1202.393, 0.9581360
1202.875, 0.1498620
1203.357, 0.5858740
1203.839, 3.793793
1204.321, 3.269564
1204.803, 0.7366990
1205.285, 0.8351950
1205.767, 0.5613710
1206.250, 0.4579350
1206.732, 0.1771390
1207.214, 0.1615450
1207.696, 1.126110
1208.178, 0.3651450
1208.660, 0.3874810
1209.142, 2.703119
1209.624, 5.740805
1210.106, 9.161005
1210.589, 10.36314
1211.071, 8.822686
1211.553, 7.001667
1212.035, 6.661201
1212.517, 6.978781
1212.999, 6.461246
1213.481, 5.525959
1213.963, 5.050851
1214.445, 6.273109
1214.928, 6.067733
1215.410, 4.002603
1215.892, 1.876423
1216.374, 0.4139300
1216.856, 0.2805320
1217.338, 4.305575
1217.820, 10.20976
1218.302, 12.56672
1218.785, 6.739344
1219.267, 4.564074
1219.749, 7.135172
1220.231, 10.51515
1220.713, 12.15060
1221.195, 12.23222
1221.677, 10.36866
1222.159, 7.216859
1222.641, 4.594539
1223.124, 2.572647
1223.606, 1.617631
1224.088, 1.733935
1224.570, 2.928878
1225.052, 6.683334
1225.534, 10.50139
1226.016, 10.60157
1226.498, 7.907576
1226.980, 5.736432
1227.463, 4.179369
1227.945, 4.794599
1228.427, 8.157866
1228.909, 10.76752
1229.391, 8.261992
1229.873, 4.466115
1230.355, 3.796856
1230.837, 5.656629
1231.320, 7.269960
1231.802, 8.687249
1232.284, 8.941648
1232.766, 7.876964
1233.248, 6.134147
1233.730, 3.249542
1234.212, 0.8368360
1234.694, 1.693407
1235.177, 4.818619
1235.659, 5.406585
1236.141, 2.781074
1236.623, 1.126520
1237.105, 1.115415
1237.587, 2.406128
1238.069, 6.719704
1238.551, 10.72730
1239.033, 10.18710
1239.516, 6.444865
1239.998, 5.356143
1240.480, 7.093212
1240.962, 10.04069
1241.444, 14.14637
1241.926, 17.51633
1242.408, 18.10995
1242.890, 17.75772
1243.372, 17.65692
1243.855, 17.77003
1244.337, 17.93773
1244.819, 18.17505
1245.301, 18.00076
1245.783, 17.39086
1246.265, 16.46232
1246.747, 15.51967
1247.229, 14.28224
1247.712, 11.26220
1248.194, 8.017167
1248.676, 9.466269
1249.158, 15.00381
1249.640, 15.08599
1250.122, 8.194782
1250.604, 2.692706
1251.086, 4.910504
1251.568, 8.345275
1252.051, 9.989843
1252.533, 10.22101
1253.015, 10.05140
1253.497, 9.707241
1253.979, 9.231523
1254.461, 8.899220
1254.943, 7.854007
1255.425, 5.402912
1255.907, 3.358373
1256.390, 1.970109
1256.872, 1.628522
1257.354, 2.314197
1257.836, 3.547072
1258.318, 4.264904
1258.800, 4.359676
1259.282, 4.913800
1259.764, 7.848196
1260.247, 9.292632
1260.729, 7.681457
1261.211, 5.345489
1261.693, 5.470668
1262.175, 7.271605
1262.657, 9.929824
1263.139, 13.25715
1263.621, 14.33598
1264.104, 10.87871
1264.586, 8.123365
1265.068, 7.164088
1265.550, 8.009183
1266.032, 13.61520
1266.514, 19.78546
1266.996, 17.86518
1267.478, 7.074438
1267.960, 2.250218
1268.443, 6.531895
1268.925, 9.962292
1269.407, 9.907587
1269.889, 9.035586
1270.371, 11.03926
1270.853, 9.791881
1271.335, 12.65030
1271.817, 9.106986
1272.299, 6.943393
1272.782, 6.414615
1273.264, 6.959012
1273.746, 8.722212
1274.228, 10.06391
1274.710, 8.711756
1275.192, 6.839240
1275.674, 6.412188
1276.156, 7.162426
1276.639, 7.901640
1277.121, 8.650285
1277.603, 7.728630
1278.085, 4.664488
1278.567, 2.792983
1279.049, 7.134226
1279.531, 10.79739
1280.013, 8.550932
1280.495, 2.976572
1280.978, 0.6427550
1281.460, 1.298322
1281.942, 3.432194
1282.424, 6.905724
1282.906, 9.529241
1283.388, 11.09586
1283.870, 9.974019
1284.352, 4.310588
1284.834, 1.509126
1285.317, 6.3455001E-02
1285.799, 1.130858
1286.281, 3.570363
1286.763, 9.873171
1287.245, 13.35516
1287.727, 10.20712
1288.209, 7.767284
1288.691, 7.861491
1289.173, 8.811659
1289.656, 7.528868
1290.138, 5.831315
1290.620, 7.791163
1291.102, 13.33259
1291.584, 14.98086
1292.066, 11.13491
1292.548, 6.183341
1293.030, 0.1373810
1293.513, 1.127203
1293.995, 0.2327630
1294.477, 6.521477
1294.959, 7.897720
1295.441, 7.328729
1295.923, 7.869099
1296.405, 9.206491
1296.887, 9.565610
1297.370, 8.644549
1297.852, 7.219683
1298.334, 5.119694
1298.816, 3.604927
1299.298, 1.408553
1299.780, 2.311418
1300.262, 5.001423
1300.744, 8.974514
1301.226, 9.247565
1301.708, 5.296710
1302.191, 1.931574
1302.673, 0.1832160
1303.155, 2.2198999E-02
1303.637, 2.9945999E-02
1304.119, 0.0000000E+00
##END=



