##NAMES=Anorthite
##RRUFFID=R060082
##IDEAL CHEMISTRY=CaAl_2_Si_2_O_8_
##LOCALITY=Pinacate Mountains, Sonora, Mexico
##OWNER=RRUFF
##SOURCE=University of Arizona Mineral Museum
##DESCRIPTION=Colorless crystal fragment
##STATUS=The identification of this mineral has been confirmed by X-ray diffraction and chemical analysis
##URL=rruff.info/R060082
##MEASURED CHEMISTRY=(Na_0.40_K_0.02_Ca_0.58_)Al_1.58_Si_2.42_O_8_
113.2336, 0.0000000E+00
113.7157, 0.3398130
114.1978, 0.6008300
114.6799, 0.8257450
115.1620, 0.8159480
115.6442, 1.622192
116.1263, 1.737610
116.6084, 1.511139
117.0905, 0.7240300
117.5726, 3.7354000E-02
118.0547, 0.3576350
118.5369, 0.1614990
119.0190, 0.2921450
119.5011, 0.6817020
119.9832, 1.013641
120.4653, 1.230347
120.9474, 1.307617
121.4296, 1.295929
121.9117, 1.205383
122.3938, 1.038696
122.8759, 0.8392330
123.3580, 0.7561040
123.8401, 1.026428
124.3223, 1.155457
124.8044, 0.8183590
125.2865, 0.3424680
125.7686, 0.2817080
126.2507, 1.037079
126.7328, 2.517059
127.2150, 3.381622
127.6971, 3.340240
128.1792, 3.140625
128.6613, 3.095551
129.1434, 3.190125
129.6255, 3.229828
130.1077, 3.013031
130.5898, 2.580597
131.0719, 2.354858
131.5540, 2.355804
132.0361, 2.568237
132.5182, 3.075745
133.0004, 3.960785
133.4825, 4.788025
133.9646, 5.138855
134.4467, 5.162750
134.9288, 5.116608
135.4109, 5.075592
135.8931, 5.044098
136.3752, 5.021942
136.8573, 4.923309
137.3394, 4.967743
137.8215, 5.267609
138.3036, 5.791748
138.7858, 6.435181
139.2679, 7.186066
139.7500, 8.082489
140.2321, 8.777191
140.7142, 9.114746
141.1963, 9.368347
141.6785, 9.613037
142.1606, 9.871582
142.6427, 10.15454
143.1248, 10.46661
143.6069, 10.76569
144.0890, 11.21136
144.5712, 12.01025
145.0533, 12.79489
145.5354, 13.25809
146.0175, 13.32901
146.4996, 13.24380
146.9817, 13.43085
147.4639, 14.20560
147.9460, 14.74982
148.4281, 14.79837
148.9102, 14.66904
149.3923, 14.79691
149.8744, 15.37720
150.3566, 16.19214
150.8387, 16.71472
151.3208, 16.83246
151.8029, 17.02130
152.2850, 17.52805
152.7671, 18.26318
153.2493, 18.92432
153.7314, 19.36655
154.2135, 19.68170
154.6956, 20.04764
155.1777, 20.45990
155.6598, 20.92505
156.1420, 21.52631
156.6241, 22.27701
157.1062, 22.83719
157.5883, 22.70789
158.0704, 22.47549
158.5525, 22.67172
159.0347, 23.46423
159.5168, 24.61182
159.9989, 25.84625
160.4810, 27.33743
160.9631, 28.45474
161.4452, 28.85751
161.9274, 28.92990
162.4095, 28.92593
162.8916, 28.91370
163.3737, 29.05380
163.8558, 29.91946
164.3379, 32.40259
164.8201, 34.46878
165.3022, 35.62231
165.7843, 36.22089
166.2664, 36.71204
166.7485, 37.36197
167.2306, 38.14938
167.7128, 38.91370
168.1949, 39.53989
168.6770, 40.26724
169.1591, 41.19250
169.6412, 42.29669
170.1233, 43.46841
170.6055, 44.55420
171.0876, 45.55978
171.5697, 46.76422
172.0518, 48.33316
172.5339, 49.89166
173.0160, 51.29266
173.4982, 52.51068
173.9803, 53.54846
174.4624, 54.35388
174.9445, 54.95786
175.4266, 55.72687
175.9087, 56.76721
176.3909, 57.88342
176.8730, 58.93369
177.3551, 59.91397
177.8372, 60.74686
178.3193, 61.23239
178.8014, 61.49237
179.2836, 61.86523
179.7657, 62.63828
180.2478, 63.49265
180.7299, 63.92148
181.2120, 63.81088
181.6941, 63.54785
182.1763, 63.27103
182.6584, 63.03473
183.1405, 62.97223
183.6226, 63.26080
184.1047, 63.77151
184.5868, 64.09509
185.0690, 64.23828
185.5511, 64.13669
186.0332, 63.61282
186.5153, 62.86456
186.9974, 62.27628
187.4795, 62.18829
187.9617, 62.55051
188.4438, 62.63705
188.9259, 62.11377
189.4080, 61.64206
189.8901, 61.50082
190.3722, 61.58582
190.8544, 61.64673
191.3365, 61.48199
191.8186, 61.08096
192.3007, 60.61472
192.7828, 60.17642
193.2649, 59.59134
193.7471, 58.66370
194.2292, 57.50745
194.7113, 56.42978
195.1934, 55.75134
195.6755, 55.57867
196.1576, 55.10571
196.6398, 54.21164
197.1219, 53.20023
197.6040, 52.12802
198.0861, 51.04794
198.5682, 50.07471
199.0503, 49.35266
199.5325, 48.95001
200.0146, 48.36722
200.4967, 47.73065
200.9788, 46.84100
201.4609, 45.41458
201.9430, 43.46768
202.4252, 41.48151
202.9073, 39.95547
203.3894, 38.95428
203.8715, 37.71472
204.3536, 35.91730
204.8357, 34.03345
205.3179, 32.56122
205.8000, 31.57294
206.2821, 30.68942
206.7642, 29.43503
207.2463, 27.90176
207.7284, 26.73831
208.2106, 26.62167
208.6927, 26.74878
209.1748, 25.83844
209.6569, 23.52682
210.1390, 21.08569
210.6211, 19.69705
211.1033, 19.03070
211.5854, 18.36157
212.0675, 17.31763
212.5496, 16.09659
213.0317, 15.17703
213.5138, 14.71680
213.9960, 14.27454
214.4781, 13.56625
214.9602, 12.66916
215.4423, 11.72577
215.9244, 10.78586
216.4065, 9.854614
216.8886, 8.951965
217.3708, 7.980774
217.8529, 7.203888
218.3350, 6.849823
218.8171, 6.739777
219.2992, 6.534760
219.7813, 6.000397
220.2635, 5.186493
220.7456, 4.435486
221.2277, 3.793671
221.7098, 3.170410
222.1919, 2.497192
222.6740, 1.824585
223.1562, 1.236633
223.6383, 0.8026120
224.1204, 0.5122990
224.6025, 0.2307130
225.0846, 7.0800997E-02
225.5667, 0.3247070
226.0489, 0.5509950
226.5310, 0.7168270
227.0131, 0.7357790
227.4952, 0.5133360
227.9773, 8.3466001E-02
228.4594, 1.0680000E-03
228.9416, 0.7424930
229.4237, 1.345642
229.9058, 1.580811
230.3879, 1.513855
230.8700, 1.253510
231.3521, 0.8409730
231.8343, 0.3055420
232.3164, 0.1379090
232.7985, 0.8652340
233.2806, 1.368652
233.7627, 1.226471
234.2448, 0.6389470
234.7270, 2.7283000E-02
235.2091, 0.3462520
235.6912, 0.5050660
236.1733, 0.6615600
236.6554, 0.6709900
237.1375, 0.8309940
237.6197, 1.331970
238.1018, 2.060028
238.5839, 2.787476
239.0660, 3.406189
239.5481, 3.897247
240.0302, 4.151184
240.5124, 3.898285
240.9945, 3.749023
241.4766, 3.997131
241.9587, 4.522369
242.4408, 5.004974
242.9229, 5.256561
243.4051, 5.378326
243.8872, 5.724030
244.3693, 6.499603
244.8514, 7.192749
245.3335, 7.363068
245.8156, 7.195160
246.2978, 7.358215
246.7799, 8.289795
247.2620, 9.631958
247.7441, 10.54480
248.2262, 10.88144
248.7083, 10.99826
249.1905, 10.93167
249.6726, 10.77518
250.1547, 10.85721
250.6368, 11.37210
251.1189, 12.07013
251.6010, 12.53229
252.0832, 12.70242
252.5653, 12.90924
253.0474, 13.41296
253.5295, 14.13852
254.0116, 14.77545
254.4937, 15.28891
254.9759, 15.59445
255.4580, 15.50943
255.9401, 15.01114
256.4222, 14.70328
256.9043, 15.12308
257.3864, 16.11795
257.8686, 16.89948
258.3507, 17.27841
258.8328, 17.43576
259.3149, 17.48343
259.7970, 17.44269
260.2791, 17.49847
260.7613, 17.79111
261.2434, 18.28909
261.7255, 18.85806
262.2076, 19.64819
262.6897, 20.26685
263.1718, 20.34946
263.6540, 20.03644
264.1361, 19.82535
264.6182, 20.15268
265.1003, 20.90579
265.5824, 21.38852
266.0645, 21.40390
266.5467, 21.39734
267.0288, 21.61258
267.5109, 21.98193
267.9930, 22.35721
268.4751, 22.67401
268.9572, 22.92697
269.4394, 23.06067
269.9215, 22.89737
270.4036, 22.89825
270.8857, 23.51804
271.3678, 24.35040
271.8499, 24.70276
272.3321, 24.05243
272.8142, 22.78287
273.2963, 22.28616
273.7784, 23.11414
274.2605, 23.82083
274.7426, 23.96942
275.2248, 23.78867
275.7069, 23.50098
276.1890, 23.17950
276.6711, 22.90598
277.1532, 22.95135
277.6353, 23.64679
278.1175, 24.03058
278.5996, 23.81171
279.0817, 23.30630
279.5638, 22.72070
280.0459, 22.12927
280.5280, 21.68814
281.0102, 21.77563
281.4923, 22.81528
281.9744, 23.48795
282.4565, 23.78992
282.9386, 23.65308
283.4207, 22.85663
283.9029, 21.39886
284.3850, 19.69858
284.8671, 18.40231
285.3492, 17.69806
285.8313, 16.99802
286.3134, 16.14902
286.7956, 15.33261
287.2777, 14.77512
287.7598, 14.47095
288.2419, 14.14023
288.7240, 13.37952
289.2061, 11.98206
289.6883, 10.97415
290.1704, 10.54895
290.6525, 10.22873
291.1346, 9.963257
291.6167, 9.694427
292.0988, 9.245117
292.5810, 8.359283
293.0631, 6.936371
293.5452, 5.880310
294.0273, 5.396698
294.5094, 5.065674
294.9915, 4.859894
295.4737, 4.701508
295.9558, 4.471497
296.4379, 4.082703
296.9200, 3.540466
297.4021, 2.958679
297.8842, 2.136139
298.3664, 1.491486
298.8485, 1.243591
299.3306, 1.207031
299.8127, 1.104675
300.2948, 0.7794190
300.7769, 0.2854310
301.2591, 0.1625670
301.7412, 0.7291560
302.2233, 1.021271
302.7054, 0.7193300
303.1875, 0.2380370
303.6696, 0.1116940
304.1518, 0.5483090
304.6339, 1.206604
305.1160, 1.321350
305.5981, 0.2232970
306.0802, 0.4243470
306.5623, 0.3174440
307.0445, 5.1086001E-02
307.5266, 0.3221130
308.0087, 0.3919980
308.4908, 0.3334350
308.9729, 0.2394100
309.4550, 7.6629996E-02
309.9372, 3.4790002E-02
310.4193, 7.0312999E-02
310.9014, 8.5022002E-02
311.3835, 8.4839001E-02
311.8656, 8.7860003E-02
312.3477, 0.1419680
312.8299, 0.3027340
313.3120, 0.5938110
313.7941, 0.8475950
314.2762, 1.067230
314.7583, 1.253967
315.2404, 1.354767
315.7226, 1.418518
316.2047, 1.565186
316.6868, 1.875305
317.1689, 2.323517
317.6510, 2.841583
318.1331, 3.674988
318.6153, 4.319641
319.0974, 4.546051
319.5795, 4.549225
320.0616, 4.645477
320.5437, 4.987915
321.0258, 5.433594
321.5080, 5.578369
321.9901, 4.928986
322.4722, 4.622650
322.9543, 5.014832
323.4364, 5.635193
323.9185, 6.004547
324.4007, 5.967621
324.8828, 5.740997
325.3649, 5.700195
325.8470, 5.968414
326.3291, 6.177338
326.8112, 6.345642
327.2934, 6.463593
327.7755, 6.426392
328.2576, 6.279999
328.7397, 6.280701
329.2218, 6.774475
329.7039, 7.962006
330.1861, 8.652954
330.6682, 8.451447
331.1503, 8.201477
331.6324, 8.243256
332.1145, 8.544006
332.5966, 8.929382
333.0788, 9.282867
333.5609, 9.599304
334.0430, 9.793854
334.5251, 9.685486
335.0072, 9.646179
335.4893, 9.815186
335.9715, 10.08093
336.4536, 10.26434
336.9357, 10.26999
337.4178, 10.17679
337.8999, 10.23761
338.3820, 10.71609
338.8642, 10.94482
339.3463, 10.71268
339.8284, 10.32004
340.3105, 10.01773
340.7926, 9.879578
341.2747, 9.837433
341.7568, 9.789093
342.2390, 9.716797
342.7211, 9.683777
343.2032, 9.786163
343.6853, 9.844482
344.1674, 9.725067
344.6495, 9.449921
345.1317, 9.156006
345.6138, 8.981445
346.0959, 8.937805
346.5780, 8.821838
347.0601, 8.517914
347.5422, 8.252533
348.0244, 8.108307
348.5065, 8.045410
348.9886, 8.004761
349.4707, 7.967529
349.9528, 7.896393
350.4349, 7.614532
350.9171, 6.848877
351.3992, 6.300446
351.8813, 6.267120
352.3634, 6.408051
352.8455, 6.353760
353.3276, 5.977600
353.8098, 5.493530
354.2919, 5.300476
354.7740, 5.554260
355.2561, 5.619415
355.7382, 5.250519
356.2203, 4.813293
356.7025, 4.484314
357.1846, 4.293396
357.6667, 4.207520
358.1488, 4.249207
358.6309, 4.423370
359.1130, 4.426361
359.5952, 4.025818
360.0773, 3.700256
360.5594, 3.771057
361.0415, 4.098175
361.5236, 4.360321
362.0057, 4.368652
362.4879, 4.165466
362.9700, 3.910126
363.4521, 3.636261
363.9342, 3.354126
364.4163, 2.957153
364.8984, 2.574127
365.3806, 2.395599
365.8627, 2.521179
366.3448, 2.715515
366.8269, 2.619324
367.3090, 2.189087
367.7911, 1.874939
368.2733, 1.819855
368.7554, 1.887360
369.2375, 1.994598
369.7196, 2.126465
370.2017, 2.259705
370.6838, 2.431702
371.1660, 2.609283
371.6481, 2.636108
372.1302, 2.511322
372.6123, 2.219971
373.0944, 1.574585
373.5765, 0.7839660
374.0587, 0.2692260
374.5408, 0.2880860
375.0229, 0.5702210
375.5050, 0.7684330
375.9871, 0.8910520
376.4692, 0.8811040
376.9514, 0.5391240
377.4335, 0.1306150
377.9156, 5.8502000E-02
378.3977, 0.4415280
378.8798, 0.9387210
379.3619, 1.418457
379.8441, 1.836487
380.3262, 1.965668
380.8083, 1.649658
381.2904, 1.177979
381.7725, 0.8555600
382.2546, 0.6689760
382.7368, 0.6808780
383.2189, 1.079468
383.7010, 1.620850
384.1831, 1.920166
384.6652, 1.925018
385.1473, 1.939972
385.6295, 2.213715
386.1116, 2.721741
386.5937, 3.213470
387.0758, 3.813965
387.5579, 4.275269
388.0400, 4.302216
388.5222, 4.032318
389.0043, 3.968414
389.4864, 4.398712
389.9685, 5.083344
390.4506, 5.387268
390.9327, 5.112671
391.4149, 4.981049
391.8970, 5.104797
392.3791, 5.464172
392.8612, 6.146606
393.3433, 7.149017
393.8254, 8.139343
394.3076, 8.707764
394.7897, 8.740448
395.2718, 8.941589
395.7539, 9.472321
396.2360, 10.00916
396.7181, 10.31787
397.2003, 10.46954
397.6824, 10.70648
398.1645, 11.19577
398.6466, 11.87274
399.1287, 12.42688
399.6108, 12.82013
400.0930, 13.12549
400.5751, 13.24512
401.0572, 13.32990
401.5393, 13.60037
402.0214, 14.10260
402.5035, 14.61496
402.9857, 14.79492
403.4678, 14.51602
403.9499, 14.26334
404.4320, 14.05695
404.9141, 13.85440
405.3962, 13.62027
405.8784, 13.36966
406.3605, 13.17035
406.8426, 13.11295
407.3247, 13.13800
407.8068, 12.79025
408.2889, 11.71301
408.7711, 10.77179
409.2532, 10.24567
409.7353, 9.900146
410.2174, 9.481476
410.6995, 8.902069
411.1816, 8.254669
411.6638, 7.679932
412.1459, 7.203705
412.6280, 6.666473
413.1101, 5.970093
413.5922, 5.273254
414.0743, 4.678802
414.5565, 4.173035
415.0386, 3.667328
415.5207, 3.107300
416.0028, 2.502777
416.4849, 1.857635
416.9670, 1.105804
417.4492, 0.4840090
417.9313, 0.2760310
418.4134, 0.2218630
418.8955, 4.4006001E-02
419.3776, 0.7046510
419.8597, 1.367645
420.3419, 1.625305
420.8240, 1.514862
421.3061, 1.375458
421.7882, 1.267792
422.2703, 1.213013
422.7524, 1.263306
423.2346, 1.415710
423.7167, 1.523865
424.1988, 1.493835
424.6809, 1.408844
425.1630, 1.401276
425.6451, 1.484619
426.1273, 1.535706
426.6094, 1.452484
427.0915, 1.257477
427.5736, 1.101654
428.0557, 1.094543
428.5378, 1.009888
429.0200, 0.5854190
429.5021, 2.7222000E-02
429.9842, 0.1683350
430.4663, 0.2065730
430.9484, 0.7801210
431.4305, 0.9515080
431.9127, 0.5247190
432.3948, 0.1218870
432.8769, 0.3847350
433.3590, 0.7788390
433.8411, 0.7663570
434.3232, 0.4393920
434.8054, 0.2231750
435.2875, 0.4629210
435.7696, 1.121918
436.2517, 1.698547
436.7338, 2.304565
437.2159, 2.672058
437.6981, 2.510315
438.1802, 2.186829
438.6623, 2.122284
439.1444, 2.445435
439.6265, 2.958588
440.1086, 3.403198
440.5908, 3.815613
441.0729, 4.073547
441.5550, 3.995911
442.0371, 3.916779
442.5192, 3.922852
443.0013, 4.047516
443.4835, 4.350372
443.9656, 4.921906
444.4477, 5.650818
444.9298, 6.158875
445.4119, 6.383545
445.8940, 6.553375
446.3762, 6.702484
446.8583, 6.854889
447.3404, 6.982513
447.8225, 7.075165
448.3046, 7.318237
448.7867, 8.021057
449.2689, 9.064911
449.7510, 9.747375
450.2331, 9.786102
450.7152, 9.834198
451.1973, 10.51627
451.6794, 11.62292
452.1616, 12.64368
452.6437, 13.31491
453.1258, 13.94388
453.6079, 14.85910
454.0900, 16.01791
454.5721, 17.13861
455.0543, 18.10489
455.5364, 18.96094
456.0185, 19.75400
456.5006, 20.41229
456.9827, 21.25540
457.4648, 22.45071
457.9470, 23.81262
458.4291, 25.14032
458.9112, 26.41495
459.3933, 27.77039
459.8754, 29.34030
460.3575, 31.12094
460.8397, 32.81848
461.3218, 34.45346
461.8039, 36.00415
462.2860, 37.39667
462.7681, 38.72946
463.2502, 40.10809
463.7324, 41.57404
464.2145, 43.12320
464.6966, 44.76788
465.1787, 46.55511
465.6608, 48.26581
466.1429, 49.79742
466.6251, 51.34912
467.1072, 52.98376
467.5893, 54.71509
468.0714, 56.56195
468.5535, 58.55731
469.0356, 60.64050
469.5178, 62.64285
469.9999, 64.54553
470.4820, 66.42865
470.9641, 68.34116
471.4462, 70.23438
471.9283, 71.96243
472.4105, 73.53690
472.8926, 75.33224
473.3747, 77.89972
473.8568, 80.96024
474.3389, 83.31177
474.8210, 84.62747
475.3032, 86.00165
475.7853, 88.58167
476.2674, 91.66980
476.7495, 93.81110
477.2316, 94.34467
477.7137, 94.48938
478.1959, 94.98242
478.6780, 95.78845
479.1601, 96.84799
479.6422, 98.20389
480.1243, 99.51007
480.6064, 100.2505
481.0886, 100.3161
481.5707, 100.4823
482.0528, 101.0102
482.5349, 101.4728
483.0170, 101.5874
483.4991, 101.3800
483.9813, 100.9466
484.4634, 100.3128
484.9455, 99.62628
485.4276, 99.31470
485.9097, 99.83124
486.3918, 100.0511
486.8740, 99.70776
487.3561, 99.29730
487.8382, 99.04178
488.3203, 99.02704
488.8024, 99.37341
489.2845, 100.3192
489.7667, 101.8004
490.2488, 102.8010
490.7309, 102.8057
491.2130, 103.1527
491.6951, 104.3477
492.1772, 105.9424
492.6594, 107.4459
493.1415, 108.7314
493.6236, 110.1158
494.1057, 111.9110
494.5878, 114.0955
495.0699, 116.4111
495.5521, 118.7615
496.0342, 121.3734
496.5163, 124.5389
496.9984, 128.0783
497.4805, 131.6008
497.9626, 135.0905
498.4448, 138.4519
498.9269, 141.5772
499.4090, 144.4885
499.8911, 147.2422
500.3732, 149.8176
500.8553, 152.3412
501.3375, 155.0562
501.8196, 158.0492
502.3017, 160.7711
502.7838, 163.3500
503.2659, 165.5100
503.7480, 166.9998
504.2302, 167.9098
504.7123, 168.5714
505.1944, 169.1868
505.6765, 169.6114
506.1586, 169.4296
506.6407, 168.6046
507.1228, 167.1571
507.6049, 165.0910
508.0871, 162.4693
508.5692, 159.2620
509.0513, 155.5223
509.5334, 151.3936
510.0155, 146.9725
510.4977, 142.2452
510.9798, 137.2774
511.4619, 131.9862
511.9440, 126.6097
512.4261, 121.2051
512.9083, 115.7571
513.3904, 110.1727
513.8725, 104.4267
514.3546, 98.85547
514.8367, 93.69067
515.3188, 88.87769
515.8010, 84.23068
516.2831, 79.75031
516.7652, 75.30594
517.2473, 70.74426
517.7294, 66.15897
518.2115, 61.85229
518.6937, 57.86218
519.1758, 54.13159
519.6579, 50.77878
520.1400, 47.62598
520.6221, 44.33316
521.1042, 40.81192
521.5864, 37.36737
522.0685, 34.31042
522.5506, 31.64932
523.0327, 29.27292
523.5148, 27.11066
523.9969, 25.23129
524.4791, 24.00586
524.9612, 22.95685
525.4433, 21.35031
525.9254, 18.96350
526.4075, 16.33844
526.8896, 14.29575
527.3718, 12.89694
527.8539, 11.77170
528.3360, 11.27884
528.8181, 10.69589
529.3002, 9.553284
529.7823, 8.099915
530.2645, 6.856689
530.7466, 6.089722
531.2287, 5.525818
531.7108, 3.947784
532.1929, 3.468658
532.6750, 2.962219
533.1572, 2.439636
533.6393, 1.579376
534.1214, 1.384827
534.6035, 1.061951
535.0856, 0.8258970
535.5677, 0.9987490
536.0499, 0.6771850
536.5320, 1.028320
537.0141, 1.272888
537.4962, 2.069031
537.9783, 1.800079
538.4604, 1.392792
538.9426, 1.634476
539.4247, 2.976013
539.9068, 3.828156
540.3889, 3.767288
540.8710, 3.673904
541.3531, 3.992767
541.8353, 4.620056
542.3174, 5.302490
542.7995, 5.922119
543.2816, 6.444962
543.7637, 6.716827
544.2458, 6.588013
544.7280, 6.751144
545.2101, 7.503052
545.6922, 8.374634
546.1743, 9.181976
546.6564, 9.898392
547.1385, 10.48705
547.6207, 10.84711
548.1028, 11.17848
548.5849, 11.76479
549.0670, 12.58214
549.5491, 13.47232
550.0313, 14.44528
550.5134, 15.38742
550.9955, 16.05318
551.4776, 16.42757
551.9597, 16.95767
552.4418, 17.92319
552.9240, 18.90335
553.4061, 19.49583
553.8882, 19.80962
554.3703, 20.24631
554.8524, 21.01778
555.3345, 21.97485
555.8167, 22.77370
556.2988, 23.26178
556.7809, 23.88383
557.2630, 24.96536
557.7451, 25.86391
558.2272, 26.14882
558.7094, 25.95938
559.1915, 25.69260
559.6736, 25.56213
560.1557, 25.48764
560.6378, 25.32129
561.1199, 25.06900
561.6021, 24.70755
562.0842, 24.17693
562.5663, 23.58727
563.0484, 23.01656
563.5305, 22.46967
564.0126, 21.95714
564.4948, 21.64958
564.9769, 21.25587
565.4590, 20.43018
565.9411, 19.24063
566.4232, 17.97652
566.9053, 16.72629
567.3875, 15.52667
567.8696, 14.42368
568.3517, 13.43309
568.8338, 12.52686
569.3159, 11.74345
569.7980, 11.01430
570.2802, 10.34206
570.7623, 9.689362
571.2444, 8.939331
571.7265, 8.041458
572.2086, 7.154739
572.6907, 6.636871
573.1729, 6.630325
573.6550, 6.389130
574.1371, 5.761353
574.6192, 5.004807
575.1013, 4.010971
575.5834, 3.002548
576.0656, 2.471817
576.5477, 2.759644
577.0298, 3.215210
577.5119, 3.090271
577.9940, 2.487900
578.4761, 1.939682
578.9583, 1.566376
579.4404, 1.259323
579.9225, 0.9131010
580.4046, 0.5352780
580.8867, 0.2270660
581.3688, 5.9006002E-02
581.8510, 0.2152710
582.3331, 6.6284001E-02
582.8152, 0.1967320
583.2973, 0.2646030
583.7794, 6.3568003E-02
584.2615, 0.2123110
584.7437, 0.3277440
585.2258, 0.2692410
585.7079, 0.3302000
586.1900, 0.7343140
586.6721, 0.9736330
587.1542, 0.7736050
587.6363, 0.4248500
588.1184, 0.2739560
588.6005, 0.3949280
589.0826, 0.5642850
589.5648, 0.5641170
590.0469, 0.4429020
590.5290, 0.4040680
591.0111, 0.4766390
591.4932, 0.5578460
591.9753, 0.5951840
592.4575, 0.5921020
592.9396, 0.5425720
593.4217, 0.3752140
593.9038, 0.3655850
594.3859, 0.7972110
594.8680, 1.309479
595.3502, 1.487732
595.8323, 1.327744
596.3144, 1.090454
596.7965, 0.9349670
597.2786, 0.8441160
597.7607, 0.8019710
598.2429, 0.9326930
598.7250, 0.8853610
599.2071, 0.5198970
599.6892, 0.1110380
600.1713, 0.2391360
600.6534, 0.4873810
601.1356, 0.5543520
601.6177, 0.3662110
602.0998, 9.6465997E-02
602.5819, 1.0193000E-02
603.0640, 4.6218999E-02
603.5461, 0.1702880
604.0283, 0.3957980
604.5104, 0.5849000
604.9925, 0.5007780
605.4746, 0.1860200
605.9567, 5.4031000E-02
606.4388, 0.2594760
606.9210, 0.5616300
607.4031, 0.9066010
607.8852, 1.227386
608.3673, 1.368866
608.8494, 1.291382
609.3315, 1.174118
609.8137, 1.272964
610.2958, 1.626480
610.7779, 1.791748
611.2600, 1.578430
611.7421, 1.402878
612.2242, 1.359756
612.7064, 1.407196
613.1885, 1.521362
613.6706, 1.690353
614.1527, 1.837158
614.6348, 1.906219
615.1169, 1.899475
615.5991, 1.775269
616.0812, 1.503174
616.5633, 1.357376
617.0454, 1.551025
617.5275, 1.913834
618.0096, 2.037689
618.4918, 1.823746
618.9739, 1.728210
619.4560, 1.961655
619.9381, 2.255890
620.4202, 2.382156
620.9023, 2.368820
621.3845, 2.341110
621.8666, 2.361313
622.3487, 2.470718
622.8308, 2.810440
623.3129, 3.533447
623.7950, 4.003906
624.2772, 4.048355
624.7593, 3.966232
625.2414, 3.778015
625.7235, 3.577011
626.2056, 3.548508
626.6877, 3.798508
627.1699, 4.111710
627.6520, 4.315704
628.1341, 4.414322
628.6162, 4.373917
629.0983, 4.166534
629.5804, 4.023651
630.0626, 4.162766
630.5447, 4.534851
631.0268, 4.756088
631.5089, 4.931076
631.9910, 4.842468
632.4731, 4.177872
632.9553, 3.423645
633.4374, 2.988541
633.9195, 2.911926
634.4016, 3.067200
634.8837, 3.406952
635.3658, 3.833206
635.8480, 4.045364
636.3301, 4.021713
636.8122, 3.863251
637.2943, 3.400970
637.7764, 3.014496
638.2585, 3.121902
638.7407, 3.595901
639.2228, 3.852097
639.7049, 3.629456
640.1870, 3.212830
640.6691, 2.677689
641.1512, 2.126938
641.6334, 1.816025
642.1155, 1.807053
642.5976, 1.949966
643.0797, 2.126358
643.5618, 2.330643
644.0439, 2.309296
644.5261, 1.715240
645.0082, 1.370514
645.4903, 1.667343
645.9724, 2.076843
646.4545, 2.042526
646.9366, 1.560806
647.4188, 1.132950
647.9009, 1.228027
648.3830, 1.575653
648.8651, 1.545364
649.3472, 1.128769
649.8293, 0.6848450
650.3115, 0.2759860
650.7936, 1.0986000E-02
651.2757, 3.1799000E-02
651.7578, 0.4150240
652.2399, 0.5201110
652.7220, 9.2320004E-03
653.2042, 0.4872130
653.6863, 0.4406740
654.1684, 0.1441350
654.6505, 7.9742000E-02
655.1326, 0.3654790
655.6147, 0.7116090
656.0969, 0.7797850
656.5790, 0.5829160
657.0611, 0.5616460
657.5432, 0.9018550
658.0253, 1.020309
658.5074, 0.4487610
658.9896, 0.2468720
659.4717, 0.5519710
659.9538, 0.4346010
660.4359, 0.2730560
660.9180, 0.2280580
661.4001, 0.2390440
661.8823, 0.2641300
662.3644, 0.2884670
662.8465, 0.2584230
663.3286, 0.1417540
663.8107, 1.0590000E-02
664.2928, 1.8859999E-02
664.7750, 7.6674998E-02
665.2571, 0.1255950
665.7392, 6.2870001E-03
666.2213, 3.9992999E-02
666.7034, 0.1420440
667.1855, 0.4231260
667.6677, 0.7039790
668.1498, 0.9597630
668.6319, 1.163910
669.1140, 1.311096
669.5961, 1.387177
670.0782, 1.343384
670.5604, 1.182007
671.0425, 0.9761350
671.5246, 0.7057950
672.0067, 0.5017400
672.4888, 0.6163180
672.9709, 1.159988
673.4531, 1.429413
673.9352, 1.162827
674.4173, 0.8851170
674.8994, 0.8572850
675.3815, 0.9589230
675.8636, 0.9820560
676.3458, 0.8773500
676.8279, 0.7956850
677.3100, 0.9506070
677.7921, 1.281006
678.2742, 1.337433
678.7563, 1.014511
679.2385, 0.8148040
679.7206, 1.001587
680.2027, 1.338745
680.6848, 1.552078
681.1669, 1.644531
681.6490, 1.626282
682.1312, 1.427704
682.6133, 1.190231
683.0954, 0.8927150
683.5775, 0.6539460
684.0596, 0.7985230
684.5417, 1.390762
685.0239, 1.959351
685.5060, 1.910477
685.9881, 1.272598
686.4702, 0.9623720
686.9523, 1.108429
687.4344, 1.337738
687.9166, 1.620651
688.3987, 1.887421
688.8808, 2.149109
689.3629, 2.378983
689.8450, 2.348618
690.3271, 1.605484
690.8093, 0.8488460
691.2914, 0.8281100
691.7735, 1.352051
692.2556, 1.897339
692.7377, 2.305939
693.2198, 2.674362
693.7020, 3.115219
694.1841, 3.625702
694.6662, 4.115921
695.1483, 4.582489
695.6304, 5.030655
696.1125, 5.700302
696.5947, 6.177902
697.0768, 6.010574
697.5589, 5.275909
698.0410, 4.541046
698.5231, 4.016983
699.0052, 3.730621
699.4874, 3.849350
699.9695, 4.264297
700.4516, 4.485916
700.9337, 4.376785
701.4158, 4.201904
701.8979, 4.229858
702.3801, 4.435806
702.8622, 4.480804
703.3443, 4.249451
703.8264, 4.024734
704.3085, 3.779770
704.7906, 3.580399
705.2728, 3.543839
705.7549, 3.615509
706.2370, 3.564209
706.7191, 3.199997
707.2012, 2.760757
707.6833, 2.542618
708.1655, 2.537170
708.6476, 2.818665
709.1297, 3.492767
709.6118, 4.036255
710.0939, 3.937363
710.5760, 3.313858
711.0582, 2.952133
711.5403, 3.209183
712.0224, 3.295410
712.5045, 2.968369
712.9866, 2.562775
713.4688, 2.292999
713.9509, 2.176331
714.4330, 2.208191
714.9151, 2.398834
715.3972, 2.495087
715.8793, 2.039734
716.3615, 1.213394
716.8436, 0.9201660
717.3257, 1.304092
717.8078, 1.741196
718.2899, 1.852859
718.7720, 1.754456
719.2542, 1.751801
719.7363, 1.893661
720.2184, 2.002182
720.7005, 2.099121
721.1826, 2.120392
721.6647, 1.914291
722.1469, 1.633270
722.6290, 1.583145
723.1111, 1.866364
723.5932, 2.217697
724.0753, 2.333252
724.5574, 2.255768
725.0396, 2.175735
725.5217, 2.087067
726.0038, 2.071243
726.4859, 2.183578
726.9680, 2.363998
727.4501, 2.502808
727.9323, 2.578995
728.4144, 2.758331
728.8965, 3.229965
729.3786, 3.609100
729.8607, 3.586212
730.3428, 3.436035
730.8250, 3.601151
731.3071, 4.124619
731.7892, 4.571899
732.2713, 4.474808
732.7534, 4.064026
733.2355, 4.045502
733.7177, 4.438873
734.1998, 4.830048
734.6819, 5.138824
735.1640, 5.336609
735.6461, 5.321777
736.1282, 5.111542
736.6104, 5.149673
737.0925, 5.729279
737.5746, 6.172287
738.0567, 6.242020
738.5388, 6.148834
739.0209, 6.043045
739.5031, 5.963669
739.9852, 5.906387
740.4673, 5.846313
740.9494, 5.879074
741.4315, 6.264328
741.9136, 6.956116
742.3958, 7.395020
742.8779, 7.465424
743.3600, 7.419189
743.8421, 7.381912
744.3242, 7.372192
744.8063, 7.460892
745.2885, 7.698990
745.7706, 7.920563
746.2527, 8.187592
746.7348, 8.362839
747.2169, 8.311615
747.6990, 8.121231
748.1812, 7.929871
748.6633, 7.790146
749.1454, 7.733475
749.6275, 7.790955
750.1096, 7.960678
750.5917, 8.294235
751.0739, 8.803040
751.5560, 9.186615
752.0381, 9.314133
752.5202, 9.268265
753.0023, 9.110809
753.4844, 8.770401
753.9666, 8.801178
754.4487, 9.654114
754.9308, 10.28871
755.4129, 10.18134
755.8950, 9.867340
756.3771, 9.923172
756.8593, 10.37383
757.3414, 10.83281
757.8235, 11.03770
758.3056, 11.14922
758.7877, 11.42354
759.2698, 11.79309
759.7520, 12.01183
760.2341, 12.02579
760.7162, 11.98380
761.1983, 11.98282
761.6804, 12.03993
762.1625, 12.24526
762.6447, 12.83502
763.1268, 13.19299
763.6089, 13.09158
764.0910, 12.98500
764.5731, 13.08780
765.0552, 13.35527
765.5374, 13.68448
766.0195, 14.05113
766.5016, 14.40482
766.9837, 14.71982
767.4658, 14.99013
767.9479, 15.22859
768.4301, 15.42111
768.9122, 15.45073
769.3943, 15.24864
769.8764, 15.03705
770.3585, 15.19543
770.8406, 15.78030
771.3228, 16.16403
771.8049, 16.25029
772.2870, 16.26282
772.7691, 16.20717
773.2512, 16.16115
773.7333, 16.26767
774.2155, 16.48969
774.6976, 16.51404
775.1797, 15.98509
775.6618, 15.48677
776.1439, 15.46951
776.6260, 15.73778
777.1082, 16.02219
777.5903, 16.25758
778.0724, 16.44911
778.5545, 16.60986
779.0366, 16.68727
779.5187, 16.45963
780.0009, 15.81851
780.4830, 15.56438
780.9651, 15.96907
781.4472, 16.41315
781.9293, 16.52766
782.4114, 16.43355
782.8936, 16.34894
783.3757, 16.27081
783.8578, 16.23579
784.3399, 16.33975
784.8220, 16.43021
785.3041, 16.27823
785.7863, 16.03096
786.2684, 16.02982
786.7505, 16.34978
787.2326, 16.65166
787.7147, 16.56154
788.1968, 16.24272
788.6790, 16.23477
789.1611, 16.54721
789.6432, 16.70593
790.1253, 16.58151
790.6074, 16.26010
791.0895, 15.77862
791.5717, 15.15741
792.0538, 14.63742
792.5359, 14.13747
793.0180, 13.84958
793.5001, 14.12421
793.9822, 14.32207
794.4644, 13.78690
794.9465, 12.84720
795.4286, 12.35606
795.9107, 12.69623
796.3928, 13.05630
796.8749, 12.63512
797.3571, 11.77025
797.8392, 11.09894
798.3213, 10.63411
798.8034, 10.15269
799.2855, 9.556763
799.7676, 8.909134
800.2498, 8.307785
800.7319, 7.755402
801.2140, 7.135315
801.6961, 6.282745
802.1782, 5.659256
802.6603, 5.517883
803.1425, 5.563858
803.6246, 5.736038
804.1067, 5.950180
804.5888, 5.759018
805.0709, 4.661026
805.5530, 3.681030
806.0352, 3.480118
806.5173, 3.615341
806.9994, 3.597702
807.4815, 3.398026
807.9636, 3.182007
808.4457, 3.038269
808.9279, 2.938370
809.4100, 2.880783
809.8921, 2.853531
810.3742, 2.638977
810.8563, 2.193085
811.3384, 1.740997
811.8206, 1.338318
812.3027, 1.071823
812.7848, 1.155533
813.2669, 1.685623
813.7490, 1.890472
814.2311, 1.667938
814.7133, 1.247314
815.1954, 0.3702390
815.6775, 0.4515690
816.1596, 0.6659700
816.6417, 0.3389130
817.1238, 5.1681999E-02
817.6060, 0.3143920
818.0881, 0.4506070
818.5702, 0.4242860
819.0523, 0.2838900
819.5344, 0.1026920
820.0165, 0.1087190
820.4987, 0.3300630
820.9808, 0.5577090
821.4629, 0.6597290
821.9450, 0.3133390
822.4271, 0.6171880
822.9092, 1.037262
823.3914, 0.6358640
823.8735, 0.2652130
824.3556, 0.3172000
824.8377, 0.4994510
825.3198, 0.5041050
825.8019, 0.3304900
826.2841, 0.1748810
826.7662, 0.1099850
827.2483, 6.5770000E-03
827.7304, 0.3427730
828.2125, 0.6519620
828.6946, 0.5972440
829.1768, 0.2523650
829.6589, 2.7817000E-02
830.1410, 4.8126001E-02
830.6231, 5.6366000E-02
831.1052, 0.1827090
831.5873, 0.2921300
832.0695, 0.1456910
832.5516, 0.2763820
833.0337, 0.6371460
833.5158, 0.7911070
833.9979, 0.7689670
834.4800, 0.5877230
834.9622, 0.2176360
835.4443, 2.9910000E-03
835.9264, 1.7837999E-02
836.4085, 8.3603002E-02
836.8906, 0.2083590
837.3727, 0.3236390
837.8549, 0.3838960
838.3370, 0.3933870
838.8191, 0.3633420
839.3012, 0.2425380
839.7833, 0.1914830
840.2654, 0.4757230
840.7476, 0.7545010
841.2297, 0.5185550
841.7118, 7.6064996E-02
842.1939, 0.4568940
842.6760, 0.3837590
843.1581, 0.1500090
843.6403, 0.1702270
844.1224, 0.3588410
844.6045, 0.1899410
845.0866, 0.3682710
845.5687, 0.7104030
846.0508, 0.5946500
846.5330, 0.3707120
847.0151, 0.3834690
847.4972, 0.6167600
847.9793, 0.8647610
848.4614, 1.231583
848.9435, 1.441803
849.4257, 1.513031
849.9078, 1.403030
850.3899, 0.8719180
850.8720, 0.2091670
851.3541, 2.9816000E-02
851.8362, 0.3193820
852.3184, 0.7171480
852.8005, 0.9187470
853.2826, 0.9958190
853.7647, 0.9738770
854.2468, 0.8939820
854.7289, 0.8347470
855.2111, 0.8136750
855.6932, 0.7817380
856.1753, 0.6816710
856.6574, 0.5631560
857.1395, 0.5669560
857.6216, 0.6923070
858.1038, 0.8696440
858.5859, 1.135986
859.0680, 1.189453
859.5501, 0.7023620
860.0322, 1.7761000E-02
860.5143, 1.2238000E-02
860.9965, 0.9450380
861.4786, 1.525375
861.9607, 1.582245
862.4428, 1.465668
862.9249, 1.115372
863.4070, 0.7471770
863.8892, 0.5900570
864.3713, 0.6417240
864.8534, 0.7195740
865.3355, 0.7409210
865.8176, 0.7835390
866.2997, 1.017151
866.7819, 1.227371
867.2640, 1.005386
867.7461, 0.4702000
868.2282, 0.1969910
868.7103, 0.4689640
869.1924, 0.8544310
869.6746, 0.7023620
870.1567, 0.1411900
870.6388, 0.1640780
871.1209, 0.2000580
871.6030, 0.1648410
872.0851, 0.1200410
872.5673, 3.8451999E-02
873.0494, 0.1274720
873.5315, 0.3522340
874.0136, 0.4715880
874.4957, 0.4641110
874.9778, 0.4361420
875.4600, 0.3774720
875.9421, 0.3068390
876.4242, 0.1816710
876.9063, 6.9091998E-02
877.3884, 0.1082760
877.8705, 0.3441930
878.3527, 0.5201260
878.8348, 0.5685420
879.3169, 0.5076140
879.7990, 0.2423100
880.2811, 5.5252001E-02
880.7632, 7.6049998E-02
881.2454, 0.1633000
881.7275, 0.3025510
882.2096, 7.1944997E-02
882.6917, 0.2873990
883.1738, 0.4764100
883.6559, 0.4984280
884.1381, 0.3054500
884.6202, 8.8592999E-02
885.1023, 0.4394530
885.5844, 0.6224820
886.0665, 0.6553340
886.5486, 0.5626830
887.0308, 0.3522030
887.5129, 0.2386470
887.9950, 0.1808320
888.4771, 0.3098140
888.9592, 0.8438570
889.4413, 1.341293
889.9235, 1.345245
890.4056, 0.9989470
890.8877, 0.8787080
891.3698, 1.150513
891.8519, 1.354599
892.3340, 1.486115
892.8162, 1.494461
893.2983, 1.139389
893.7804, 0.7387240
894.2625, 0.8256990
894.7446, 1.451523
895.2267, 2.016113
895.7089, 2.085739
896.1910, 2.016983
896.6731, 2.293304
897.1552, 2.628754
897.6373, 2.322510
898.1194, 1.448944
898.6016, 0.8482060
899.0837, 1.005646
899.5658, 1.574814
900.0479, 2.065460
900.5300, 2.494370
901.0121, 2.863785
901.4943, 3.170410
901.9764, 3.225739
902.4585, 2.936630
902.9406, 2.575821
903.4227, 2.435181
903.9048, 2.471100
904.3870, 2.276352
904.8691, 1.561478
905.3512, 1.210999
905.8333, 1.501587
906.3154, 1.929428
906.7975, 2.361923
907.2797, 2.732437
907.7618, 2.913589
908.2439, 2.876572
908.7260, 2.850693
909.2081, 2.908112
909.6902, 2.973053
910.1724, 3.023331
910.6545, 3.029556
911.1366, 2.952576
911.6187, 2.801849
912.1008, 2.594299
912.5829, 2.303223
913.0651, 2.121124
913.5472, 2.391647
914.0293, 2.798721
914.5114, 2.762543
914.9935, 2.368744
915.4756, 2.047699
915.9578, 1.936279
916.4398, 1.828400
916.9219, 1.466278
917.4041, 1.022491
917.8862, 1.164917
918.3683, 1.913666
918.8504, 2.306137
919.3325, 2.129395
919.8146, 1.926636
920.2968, 2.036713
920.7789, 2.256363
921.2610, 2.151947
921.7431, 1.596848
922.2252, 1.550491
922.7073, 2.529129
923.1895, 3.177429
923.6716, 2.914688
924.1537, 2.451523
924.6358, 2.279892
925.1179, 2.327606
925.6000, 2.339310
926.0822, 2.286804
926.5643, 2.189453
927.0464, 2.028488
927.5285, 1.828964
928.0106, 1.473221
928.4927, 1.135757
928.9749, 1.172653
929.4570, 1.574615
929.9391, 1.858383
930.4212, 1.676147
930.9033, 1.400162
931.3854, 1.329620
931.8676, 1.407990
932.3497, 1.622421
932.8318, 1.909683
933.3139, 2.061966
933.7960, 1.992264
934.2781, 1.865524
934.7603, 1.901535
935.2424, 2.039871
935.7245, 2.076904
936.2066, 2.007782
936.6887, 1.807556
937.1708, 1.460907
937.6530, 1.118866
938.1351, 0.8741150
938.6172, 0.7440190
939.0993, 0.7754970
939.5814, 1.005096
940.0635, 1.114075
940.5457, 1.033218
941.0278, 0.9799040
941.5099, 1.090775
941.9920, 1.211212
942.4741, 1.180023
942.9562, 0.9984280
943.4384, 0.7767180
943.9205, 0.4026340
944.4026, 0.1533200
944.8847, 8.3480999E-02
945.3668, 8.8104002E-02
945.8489, 0.1686250
946.3311, 0.2742610
946.8132, 0.3257450
947.2953, 0.3105930
947.7774, 0.3122100
948.2595, 0.4981990
948.7416, 0.5380250
949.2238, 3.4531001E-02
949.7059, 0.5174100
950.1880, 0.5384670
950.6701, 0.1685330
951.1522, 9.9151999E-02
951.6343, 8.7006003E-02
952.1165, 6.1340001E-03
952.5986, 3.2974001E-02
953.0807, 9.2560001E-02
953.5628, 6.0089000E-02
954.0449, 2.0203000E-02
954.5270, 6.1859000E-02
955.0092, 3.6605999E-02
955.4913, 0.1319270
955.9734, 0.5101170
956.4555, 0.8894810
956.9376, 0.8298650
957.4197, 0.4546360
957.9019, 0.5138550
958.3840, 1.010422
958.8661, 1.150101
959.3482, 0.6418460
959.8303, 0.1251830
960.3124, 0.2223970
960.7946, 0.7770540
961.2767, 1.206131
961.7588, 1.538605
962.2409, 1.553406
962.7230, 1.053940
963.2051, 0.7230680
963.6873, 0.9070740
964.1694, 1.350845
964.6515, 1.739670
965.1336, 2.073456
965.6157, 2.435776
966.0978, 2.996689
966.5800, 3.314697
967.0621, 3.185944
967.5442, 2.997955
968.0263, 2.849915
968.5084, 2.803772
968.9905, 3.026276
969.4727, 3.559570
969.9548, 3.881805
970.4369, 3.703125
970.9190, 3.521606
971.4011, 3.532959
971.8832, 3.626434
972.3654, 3.670105
972.8475, 3.705017
973.3296, 3.899353
973.8117, 4.335800
974.2938, 4.556152
974.7759, 4.062851
975.2581, 3.471359
975.7402, 3.293823
976.2223, 3.387146
976.7044, 3.643417
977.1865, 3.926666
977.6686, 3.803680
978.1508, 2.974304
978.6329, 2.283859
979.1150, 2.973114
979.5971, 4.245193
980.0792, 4.633652
980.5613, 4.301071
981.0435, 3.956879
981.5256, 3.784241
982.0077, 3.590546
982.4898, 3.207245
982.9719, 2.816605
983.4540, 2.868195
983.9362, 3.257782
984.4183, 3.295090
984.9004, 2.955765
985.3825, 2.837769
985.8646, 3.180649
986.3467, 3.540543
986.8289, 3.413589
987.3110, 2.950165
987.7931, 2.717026
988.2752, 2.741394
988.7573, 2.745270
989.2394, 2.695175
989.7216, 2.691422
990.2037, 2.839035
990.6858, 2.919403
991.1679, 2.581940
991.6500, 1.866333
992.1321, 1.587769
992.6143, 2.057571
993.0964, 2.246307
993.5785, 1.835373
994.0606, 1.461411
994.5427, 1.454590
995.0248, 1.669388
995.5070, 1.961807
995.9891, 2.357559
996.4712, 2.473236
996.9533, 1.997406
997.4354, 1.681549
997.9175, 1.724396
998.3997, 1.866257
998.8818, 2.029358
999.3639, 2.159180
999.8460, 2.148819
1000.328, 1.972672
1000.810, 1.861191
1001.292, 2.023987
1001.774, 2.059250
1002.257, 1.579529
1002.739, 1.109406
1003.221, 1.164948
1003.703, 1.582260
1004.185, 1.988297
1004.667, 2.297836
1005.149, 2.333542
1005.631, 1.730865
1006.114, 1.130096
1006.596, 0.9812010
1007.078, 1.082169
1007.560, 1.218369
1008.042, 1.358292
1008.524, 1.460953
1009.006, 1.484528
1009.488, 1.516815
1009.970, 1.705811
1010.453, 1.883942
1010.935, 1.819550
1011.417, 1.621658
1011.899, 1.511505
1012.381, 1.492279
1012.863, 1.400299
1013.345, 1.147400
1013.827, 0.8651280
1014.310, 0.6361540
1014.792, 0.5133970
1015.274, 0.7112880
1015.756, 1.086014
1016.238, 1.150833
1016.720, 0.8668370
1017.202, 0.6893010
1017.684, 0.9020230
1018.166, 1.235321
1018.649, 1.346436
1019.131, 1.267975
1019.613, 1.067307
1020.095, 0.7747960
1020.577, 0.5894470
1021.059, 0.5581820
1021.541, 0.6050110
1022.023, 0.6877590
1022.505, 0.7760620
1022.988, 0.7837370
1023.470, 0.6922150
1023.952, 0.4817200
1024.434, 0.1502080
1024.916, 5.6136999E-02
1025.398, 6.9747999E-02
1025.880, 1.5976001E-02
1026.362, 0.1408540
1026.845, 0.2848510
1027.327, 0.4251250
1027.809, 0.5729680
1028.291, 0.4482270
1028.773, 5.0643999E-02
1029.255, 0.2031860
1029.737, 0.2883150
1030.219, 0.8083340
1030.702, 0.8264160
1031.184, 0.5370330
1031.666, 0.5027620
1032.148, 0.8029330
1032.630, 0.8889010
1033.112, 0.6613920
1033.594, 0.4983370
1034.076, 0.4867860
1034.558, 0.6148680
1035.041, 0.9529270
1035.523, 1.376007
1036.005, 1.477066
1036.487, 1.130219
1036.969, 0.9224400
1037.451, 0.8839720
1037.933, 0.9310150
1038.415, 1.066467
1038.897, 1.252640
1039.380, 1.532166
1039.862, 1.822403
1040.344, 1.814316
1040.826, 1.292770
1041.308, 1.117615
1041.790, 1.833801
1042.272, 2.106613
1042.754, 1.122009
1043.237, 2.0233000E-02
1043.719, 0.2658080
1044.201, 3.1387001E-02
1044.683, 0.2484280
1045.165, 0.3437500
1045.647, 0.4530490
1046.129, 0.5993800
1046.611, 0.7381440
1047.094, 0.8343350
1047.576, 0.9408570
1048.058, 1.168335
1048.540, 1.442734
1049.022, 1.477127
1049.504, 1.162979
1049.986, 1.004715
1050.468, 1.286774
1050.950, 1.444565
1051.432, 1.121445
1051.915, 0.7628170
1052.397, 0.8162230
1052.879, 1.101959
1053.361, 1.117996
1053.843, 0.7458650
1054.325, 0.4701080
1054.807, 0.3431850
1055.289, 0.4008480
1055.772, 0.9506680
1056.254, 1.424484
1056.736, 1.213699
1057.218, 0.6058650
1057.700, 0.2707210
1058.182, 0.3315580
1058.664, 0.5567170
1059.146, 1.119675
1059.629, 1.528198
1060.111, 1.471039
1060.593, 1.281891
1061.075, 1.265854
1061.557, 1.325134
1062.039, 1.161346
1062.521, 0.7054440
1063.003, 0.4468690
1063.485, 0.7303010
1063.968, 1.021240
1064.450, 1.108398
1064.932, 1.091553
1065.414, 0.9840240
1065.896, 0.8556820
1066.378, 0.8430940
1066.860, 0.9692080
1067.342, 1.062180
1067.824, 1.032593
1068.307, 0.9768220
1068.789, 1.000519
1069.271, 0.9816740
1069.753, 0.7044070
1070.235, 0.3439030
1070.717, 0.3397220
1071.199, 0.6988070
1071.681, 0.8997960
1072.164, 0.5554960
1072.646, 0.2870330
1073.128, 0.6066590
1073.610, 0.9004970
1074.092, 0.5275730
1074.574, 0.1250460
1075.056, 0.4304350
1075.538, 0.3240970
1076.021, 0.1219020
1076.503, 8.6654998E-02
1076.985, 0.3058780
1077.467, 0.6136470
1077.949, 0.8411410
1078.431, 0.7390140
1078.913, 0.4589690
1079.395, 0.1228640
1079.877, 0.1831670
1080.359, 0.2046970
1080.842, 0.2637480
1081.324, 0.6937870
1081.806, 0.8463440
1082.288, 0.8663180
1082.770, 0.7852630
1083.252, 0.6575470
1083.734, 0.5141300
1084.216, 0.3779750
1084.698, 0.3371120
1085.181, 0.4455260
1085.663, 0.6177520
1086.145, 0.8282320
1086.627, 1.069489
1087.109, 1.489853
1087.591, 1.819229
1088.073, 1.560486
1088.555, 0.9698330
1089.038, 0.8614500
1089.520, 1.505783
1090.002, 2.000626
1090.484, 1.884918
1090.966, 1.621063
1091.448, 1.213257
1091.930, 0.9962920
1092.412, 1.615280
1092.895, 2.537552
1093.377, 2.560745
1093.859, 1.750961
1094.341, 1.181625
1094.823, 1.397034
1095.305, 1.627411
1095.787, 1.478775
1096.269, 1.365784
1096.751, 1.186234
1097.234, 1.025009
1097.716, 1.080780
1098.198, 1.355576
1098.680, 1.495255
1099.162, 1.106384
1099.644, 1.002838
1100.126, 1.913300
1100.608, 2.662994
1101.090, 2.343628
1101.573, 1.554031
1102.055, 1.005264
1102.537, 0.7663420
1103.019, 0.6486820
1103.501, 0.6367950
1103.983, 0.7043460
1104.465, 1.074493
1104.947, 1.233582
1105.430, 0.5728610
1105.912, 0.1124420
1106.394, 0.1417690
1106.876, 1.031921
1107.358, 1.420822
1107.840, 0.9833070
1108.322, 0.7409670
1108.804, 0.6409450
1109.286, 0.7872310
1109.769, 0.5975650
1110.251, 0.3568120
1110.733, 0.0000000E+00
##END=



