##NAMES=Anorthite
##RRUFFID=R060221
##IDEAL CHEMISTRY=CaAl_2_Si_2_O_8_
##LOCALITY=Pinacate lavafield, Sonora, Mexico
##OWNER=RRUFF
##SOURCE=Rock Currier
##DESCRIPTION=Light tan transparent fragment
##STATUS=The identification of this mineral has been confirmed by X-ray diffraction and chemical analysis
##URL=rruff.info/R060221
##MEASURED CHEMISTRY=(Ca_0.65_Na_0.34_K_0.01_)(Al_1.66_Fe^3+^_0.01_)Si_2.33_O_8_
150.1633, 0.0000000E+00
150.6454, 0.7609240
151.1275, 1.847479
151.6096, 3.727062
152.0917, 2.167425
152.5739, 0.2678930
153.0560, 0.6454930
153.5381, 2.3704000E-02
154.0202, 1.490293
154.5023, 2.412958
154.9844, 3.576079
155.4665, 4.070296
155.9487, 2.718037
156.4308, 0.9157210
156.9129, 0.3137300
157.3950, 0.7395790
157.8771, 0.5533010
158.3592, 2.6392000E-02
158.8414, 1.089507
159.3235, 2.319967
159.8056, 3.713560
160.2877, 5.177546
160.7698, 6.545074
161.2519, 7.712512
161.7341, 8.942158
162.2162, 11.02157
162.6983, 14.73793
163.1804, 18.31296
163.6625, 21.30864
164.1446, 24.07541
164.6268, 27.03587
165.1089, 30.45231
165.5910, 34.24539
166.0731, 38.00599
166.5552, 41.48331
167.0373, 45.20141
167.5195, 49.39396
168.0016, 53.91623
168.4837, 58.51337
168.9658, 63.01504
169.4479, 67.45260
169.9300, 71.83699
170.4122, 76.13203
170.8943, 80.47960
171.3764, 84.89497
171.8585, 89.38566
172.3406, 94.05911
172.8227, 99.02473
173.3049, 104.2105
173.7870, 109.1810
174.2691, 113.5434
174.7512, 117.9901
175.2333, 123.3114
175.7154, 129.5776
176.1976, 135.6266
176.6797, 140.4803
177.1618, 144.4536
177.6439, 148.1337
178.1260, 151.8088
178.6081, 155.2038
179.0903, 157.9518
179.5724, 160.0149
180.0545, 161.4714
180.5366, 161.8789
181.0187, 161.7932
181.5008, 162.1408
181.9830, 163.7743
182.4651, 166.0942
182.9472, 167.2394
183.4293, 166.9279
183.9114, 165.7095
184.3935, 163.3656
184.8757, 160.4863
185.3578, 158.0799
185.8399, 156.9576
186.3220, 156.9699
186.8041, 156.5146
187.2862, 154.9808
187.7684, 153.6003
188.2505, 152.7942
188.7326, 152.4177
189.2147, 152.1492
189.6968, 151.9600
190.1789, 151.9623
190.6611, 152.4644
191.1432, 153.5271
191.6253, 154.7231
192.1074, 156.2189
192.5895, 157.7785
193.0716, 158.9063
193.5538, 159.6745
194.0359, 160.0052
194.5180, 160.2819
195.0001, 160.5696
195.4822, 160.6644
195.9643, 160.1537
196.4465, 159.1115
196.9286, 157.9809
197.4107, 157.3128
197.8928, 157.2666
198.3749, 155.7294
198.8570, 151.3918
199.3392, 146.7202
199.8213, 143.4955
200.3034, 141.7766
200.7855, 140.2360
201.2676, 137.6248
201.7497, 133.8553
202.2319, 130.2470
202.7140, 127.0303
203.1961, 123.8859
203.6782, 120.5794
204.1603, 117.0780
204.6424, 113.3089
205.1246, 108.9277
205.6067, 104.1045
206.0888, 99.72726
206.5709, 96.29094
207.0530, 93.27505
207.5351, 89.90982
208.0173, 86.04234
208.4994, 82.26709
208.9815, 79.31747
209.4636, 76.83130
209.9457, 74.07760
210.4278, 70.57077
210.9100, 66.60892
211.3921, 62.81840
211.8742, 59.15882
212.3563, 55.75804
212.8384, 52.58039
213.3205, 49.67872
213.8027, 47.21534
214.2848, 45.52279
214.7669, 44.30889
215.2490, 42.54603
215.7311, 39.81721
216.2132, 37.25275
216.6954, 35.74918
217.1775, 34.66401
217.6596, 32.79449
218.1417, 29.07683
218.6238, 23.97750
219.1059, 20.35709
219.5881, 19.33834
220.0702, 18.57558
220.5523, 17.56389
221.0344, 16.29162
221.5165, 14.68728
221.9986, 12.55894
222.4808, 10.07376
222.9629, 8.818123
223.4450, 10.36446
223.9271, 11.57989
224.4092, 11.90604
224.8913, 11.44457
225.3735, 10.42325
225.8556, 8.945958
226.3377, 7.062052
226.8198, 5.207551
227.3019, 3.227663
227.7840, 1.453655
228.2662, 0.1348040
228.7483, 0.9389710
229.2304, 2.217681
229.7125, 2.475305
230.1946, 0.1589780
230.6767, 0.9429710
231.1589, 0.3239970
231.6410, 1.427874
232.1231, 1.814793
232.6052, 1.585260
233.0873, 0.8914380
233.5694, 0.2720970
234.0516, 1.732733
234.5337, 2.157398
235.0158, 0.6099330
235.4979, 0.7319300
235.9800, 0.9893720
236.4621, 0.5594320
236.9443, 0.3217680
237.4264, 0.7564860
237.9085, 1.763166
238.3906, 2.876007
238.8727, 1.554892
239.3548, 0.2556530
239.8370, 0.1630280
240.3191, 1.8012000E-02
240.8012, 8.9544997E-02
241.2833, 0.7867000
241.7654, 1.929450
242.2475, 2.928562
242.7297, 3.424352
243.2118, 4.344307
243.6939, 6.529004
244.1760, 9.526957
244.6581, 11.93651
245.1402, 13.04927
245.6224, 13.38525
246.1045, 13.99294
246.5866, 14.84076
247.0687, 15.96654
247.5508, 17.54676
248.0329, 19.53076
248.5151, 21.40372
248.9972, 22.79757
249.4793, 24.07735
249.9614, 26.08742
250.4435, 29.11737
250.9256, 31.76173
251.4078, 33.32043
251.8899, 33.86165
252.3720, 33.84690
252.8541, 32.85433
253.3362, 32.19028
253.8183, 33.23796
254.3005, 35.98539
254.7826, 38.97911
255.2647, 41.39721
255.7468, 43.35591
256.2289, 45.22562
256.7110, 47.08657
257.1931, 48.88729
257.6753, 50.61047
258.1574, 52.25903
258.6395, 53.64501
259.1216, 54.32203
259.6037, 54.49738
260.0858, 55.46454
260.5680, 58.10598
261.0501, 60.49835
261.5322, 61.23144
262.0143, 60.73462
262.4964, 60.31908
262.9785, 60.75518
263.4607, 61.96443
263.9428, 63.60780
264.4249, 66.28762
264.9070, 68.48839
265.3891, 69.09978
265.8712, 68.77811
266.3534, 68.86774
266.8355, 70.38102
267.3176, 72.90836
267.7997, 74.65340
268.2818, 75.06013
268.7639, 75.49793
269.2461, 76.70706
269.7282, 78.21769
270.2103, 79.28868
270.6924, 79.42914
271.1745, 78.98188
271.6566, 79.08580
272.1388, 80.04150
272.6209, 81.07486
273.1030, 82.22302
273.5851, 83.23544
274.0672, 83.75230
274.5493, 83.57983
275.0315, 82.99804
275.5136, 82.72058
275.9957, 82.98663
276.4778, 83.10504
276.9599, 82.71260
277.4420, 82.26324
277.9242, 82.26981
278.4063, 82.90835
278.8884, 83.76540
279.3705, 84.02806
279.8526, 83.34008
280.3347, 82.81170
280.8169, 82.83730
281.2990, 82.86764
281.7811, 82.44330
282.2632, 81.47734
282.7453, 80.29124
283.2274, 79.37019
283.7096, 78.87457
284.1917, 78.24933
284.6738, 77.79235
285.1559, 76.99024
285.6380, 75.32768
286.1201, 72.86925
286.6023, 70.17281
287.0844, 67.89336
287.5665, 66.18448
288.0486, 64.36559
288.5307, 62.39508
289.0128, 60.38832
289.4950, 58.17793
289.9771, 55.82784
290.4592, 53.61175
290.9413, 51.89260
291.4234, 50.76743
291.9055, 48.47404
292.3877, 43.92993
292.8698, 39.56310
293.3519, 35.89106
293.8340, 32.88723
294.3161, 30.42459
294.7982, 28.44979
295.2804, 26.93566
295.7625, 25.53924
296.2446, 24.73139
296.7267, 23.67451
297.2088, 21.96299
297.6909, 19.79203
298.1731, 17.50695
298.6552, 15.31997
299.1373, 13.23972
299.6194, 11.29313
300.1015, 9.143038
300.5836, 7.593294
301.0658, 7.212975
301.5479, 7.265118
302.0300, 6.886113
302.5121, 5.750028
302.9942, 4.280674
303.4763, 3.388297
303.9585, 4.051093
304.4406, 3.785578
304.9227, 1.506459
305.4048, 0.9805040
305.8869, 1.470506
306.3690, 1.339236
306.8512, 0.1054440
307.3333, 3.0789999E-02
307.8154, 1.494017
308.2975, 0.5775870
308.7796, 1.406499
309.2617, 0.9228340
309.7439, 0.5905120
310.2260, 1.011931
310.7081, 1.641193
311.1902, 1.201222
311.6723, 1.056832
312.1544, 0.7620880
312.6366, 0.2121540
313.1187, 0.8062170
313.6008, 0.3994770
314.0829, 0.7485550
314.5650, 1.270314
315.0471, 0.3210410
315.5293, 0.3227840
316.0114, 0.8355310
316.4935, 1.214298
316.9756, 1.484540
317.4577, 1.391256
317.9398, 1.235145
318.4220, 1.366088
318.9041, 1.950908
319.3862, 3.080010
319.8683, 5.108624
320.3504, 10.07952
320.8326, 13.40564
321.3147, 13.76574
321.7968, 12.87748
322.2789, 12.28515
322.7610, 12.47653
323.2431, 13.07750
323.7253, 13.41011
324.2074, 13.23826
324.6895, 13.57724
325.1716, 14.68633
325.6537, 15.90700
326.1358, 16.92887
326.6180, 17.68793
327.1001, 18.22451
327.5822, 18.52903
328.0643, 18.48877
328.5464, 18.97265
329.0285, 20.05225
329.5107, 21.37156
329.9928, 23.21288
330.4749, 25.26390
330.9570, 26.79085
331.4391, 27.20541
331.9212, 26.58333
332.4034, 26.03844
332.8855, 25.17857
333.3676, 24.84511
333.8497, 25.80764
334.3318, 27.25042
334.8139, 27.93403
335.2961, 27.21752
335.7782, 25.66521
336.2603, 24.96273
336.7424, 25.87778
337.2245, 26.54064
337.7066, 26.64458
338.1888, 26.55677
338.6709, 26.59048
339.1530, 26.83476
339.6351, 27.18366
340.1172, 27.59367
340.5993, 28.47460
341.0815, 28.31062
341.5636, 25.70539
342.0457, 23.35408
342.5278, 23.18564
343.0099, 24.89930
343.4920, 26.58069
343.9742, 26.26914
344.4563, 23.79571
344.9384, 22.48852
345.4205, 23.77465
345.9026, 24.90166
346.3847, 25.09576
346.8669, 24.61847
347.3490, 24.04147
347.8311, 23.72209
348.3132, 23.54206
348.7953, 23.01378
349.2774, 21.81417
349.7596, 20.74982
350.2417, 19.93965
350.7238, 19.33035
351.2059, 19.01569
351.6880, 19.01248
352.1701, 18.92363
352.6523, 17.90387
353.1344, 15.39012
353.6165, 13.68925
354.0986, 13.65701
354.5807, 14.00057
355.0628, 14.03400
355.5450, 13.69636
356.0271, 13.31164
356.5092, 13.32840
356.9913, 13.78357
357.4734, 13.61882
357.9555, 12.34409
358.4377, 10.95851
358.9198, 9.755982
359.4019, 8.818450
359.8840, 8.266001
360.3661, 8.256945
360.8482, 8.530574
361.3304, 8.313737
361.8125, 7.245995
362.2946, 6.331789
362.7767, 6.408762
363.2588, 6.545973
363.7409, 5.818679
364.2231, 3.889557
364.7052, 1.911852
365.1873, 1.521758
365.6694, 2.778484
366.1515, 3.975515
366.6336, 4.682897
367.1158, 5.003365
367.5979, 4.870744
368.0800, 4.302688
368.5621, 3.684615
369.0442, 3.433521
369.5263, 3.453836
370.0085, 3.126124
370.4906, 2.109386
370.9727, 1.324337
371.4548, 1.795423
371.9369, 2.989340
372.4190, 3.736302
372.9012, 3.454717
373.3833, 2.627579
373.8654, 1.950502
374.3475, 1.508551
374.8296, 1.205597
375.3117, 1.251884
375.7939, 1.425409
376.2760, 1.523907
376.7581, 1.421901
377.2402, 1.057371
377.7223, 0.2919160
378.2044, 0.1433780
378.6866, 1.173274
379.1687, 1.855341
379.6508, 2.103270
380.1329, 1.479195
380.6150, 1.4895000E-02
381.0971, 0.5212230
381.5793, 0.5713570
382.0614, 0.2402660
382.5435, 0.6560510
383.0256, 1.986541
383.5077, 3.191372
383.9898, 3.416054
384.4720, 2.734989
384.9541, 2.077806
385.4362, 1.082320
385.9183, 0.4728400
386.4004, 0.7691730
386.8825, 1.840248
387.3647, 3.416837
387.8468, 5.613997
388.3289, 7.836203
388.8110, 8.339934
389.2931, 6.364991
389.7752, 4.707339
390.2574, 3.746376
390.7395, 3.486187
391.2216, 4.177083
391.7037, 5.826450
392.1858, 7.697167
392.6679, 8.934990
393.1501, 9.400577
393.6322, 9.841903
394.1143, 9.922871
394.5964, 10.28184
395.0785, 11.53165
395.5606, 13.40354
396.0428, 15.04836
396.5249, 15.89605
397.0070, 16.12013
397.4891, 16.69138
397.9712, 17.93518
398.4533, 19.13697
398.9355, 20.14963
399.4176, 21.11705
399.8997, 22.26728
400.3818, 23.64685
400.8639, 25.03641
401.3460, 26.15089
401.8282, 27.11507
402.3103, 27.40097
402.7924, 26.35778
403.2745, 25.31535
403.7566, 24.87374
404.2387, 25.02304
404.7209, 25.57024
405.2030, 26.50425
405.6851, 27.67716
406.1672, 27.85576
406.6493, 26.31869
407.1314, 24.77187
407.6136, 23.66458
408.0957, 22.73499
408.5778, 21.64455
409.0599, 20.27374
409.5420, 18.87843
410.0241, 17.92307
410.5063, 17.55524
410.9884, 16.85907
411.4705, 15.59970
411.9526, 14.04208
412.4347, 12.22555
412.9168, 10.21723
413.3990, 8.215230
413.8811, 6.284761
414.3632, 4.471109
414.8453, 2.961410
415.3274, 1.816214
415.8095, 0.8325200
416.2917, 9.4222002E-02
416.7738, 0.9310640
417.2559, 1.646031
417.7380, 1.572922
418.2201, 1.247035
418.7022, 1.663489
419.1844, 1.360459
419.6665, 1.037360
420.1486, 2.095628
420.6307, 0.7877020
421.1128, 0.7940480
421.5949, 2.113217
422.0771, 1.730547
422.5592, 1.251214
423.0413, 0.9971740
423.5234, 1.914105
424.0055, 1.275490
424.4876, 0.4011190
424.9698, 0.2718720
425.4519, 0.7608060
425.9340, 0.9159890
426.4161, 0.2881830
426.8982, 0.1878070
427.3803, 4.3228999E-02
427.8625, 0.7181570
428.3446, 1.309821
428.8267, 1.635585
429.3088, 1.759485
429.7909, 1.865384
430.2730, 2.299312
430.7552, 1.782454
431.2373, 0.9766540
431.7194, 2.160049
432.2015, 1.490631
432.6836, 2.600060
433.1657, 2.468219
433.6479, 3.009214
434.1300, 0.9305340
434.6121, 0.1375010
435.0942, 1.311619
435.5763, 2.101545
436.0584, 1.306673
436.5406, 0.2461480
437.0227, 1.710841
437.5048, 2.770792
437.9869, 3.339326
438.4690, 3.022201
438.9511, 1.362429
439.4333, 0.3979830
439.9154, 0.3881150
440.3975, 0.8937930
440.8796, 1.971815
441.3617, 3.390312
441.8438, 4.764404
442.3260, 5.920748
442.8081, 6.796852
443.2902, 7.084852
443.7723, 6.592259
444.2544, 6.036376
444.7365, 5.165947
445.2187, 4.591897
445.7008, 5.248374
446.1829, 7.403624
446.6650, 9.382009
447.1471, 9.144321
447.6292, 7.226966
448.1114, 6.788866
448.5935, 8.818315
449.0756, 11.34717
449.5577, 12.83772
450.0398, 13.50309
450.5219, 13.85595
451.0041, 13.68533
451.4862, 13.50273
451.9683, 13.73099
452.4504, 14.36688
452.9325, 15.42343
453.4146, 17.00339
453.8968, 18.89170
454.3789, 20.64774
454.8610, 22.27707
455.3431, 23.79465
455.8252, 24.79947
456.3073, 25.91629
456.7895, 28.04589
457.2716, 31.21396
457.7537, 34.44388
458.2358, 36.83830
458.7179, 38.40187
459.2000, 40.58601
459.6822, 44.36864
460.1643, 47.55077
460.6464, 48.59574
461.1285, 48.97473
461.6106, 51.09448
462.0927, 55.78446
462.5748, 61.27456
463.0569, 64.37461
463.5391, 63.54907
464.0212, 64.46179
464.5033, 67.94136
464.9854, 72.24821
465.4675, 77.08716
465.9496, 82.10522
466.4318, 86.69457
466.9139, 90.38070
467.3960, 93.47761
467.8781, 96.93385
468.3602, 100.7234
468.8423, 104.9884
469.3245, 110.2325
469.8066, 115.7165
470.2887, 120.7442
470.7708, 125.2343
471.2529, 129.8953
471.7350, 135.3571
472.2172, 141.4635
472.6993, 147.5258
473.1814, 153.4465
473.6635, 159.4412
474.1456, 165.7802
474.6277, 172.2520
475.1099, 178.3561
475.5920, 183.9299
476.0741, 189.2804
476.5562, 194.6175
477.0383, 199.9125
477.5204, 204.9108
478.0026, 209.3275
478.4847, 213.7083
478.9668, 218.7640
479.4489, 224.7896
479.9310, 229.8996
480.4131, 233.6925
480.8953, 236.5206
481.3774, 238.5251
481.8595, 239.8593
482.3416, 240.4730
482.8237, 240.2431
483.3058, 239.4415
483.7880, 238.9768
484.2701, 239.8419
484.7522, 239.6461
485.2343, 237.6964
485.7164, 235.1114
486.1985, 232.5793
486.6807, 230.2930
487.1628, 228.2664
487.6449, 226.4053
488.1270, 224.7340
488.6091, 223.9599
489.0912, 224.7053
489.5734, 225.4321
490.0555, 225.3420
490.5376, 225.0985
491.0197, 225.5326
491.5018, 226.8286
491.9839, 229.1726
492.4661, 232.7456
492.9482, 237.3160
493.4303, 241.8992
493.9124, 246.2425
494.3945, 251.1163
494.8766, 256.7668
495.3588, 263.2753
495.8409, 271.0954
496.3230, 280.8670
496.8051, 291.5075
497.2872, 302.0385
497.7693, 312.6128
498.2515, 324.0216
498.7336, 336.7386
499.2157, 349.8005
499.6978, 361.6982
500.1799, 372.0654
500.6620, 382.7144
501.1442, 394.1871
501.6263, 405.6233
502.1084, 416.9823
502.5905, 427.8650
503.0726, 437.4211
503.5547, 445.0997
504.0369, 452.4186
504.5190, 456.7219
505.0011, 462.6635
505.4832, 466.4277
505.9653, 468.0441
506.4474, 467.5652
506.9296, 464.6443
507.4117, 459.5361
507.8938, 453.2120
508.3759, 446.5334
508.8580, 439.2873
509.3401, 430.5403
509.8223, 420.1238
510.3044, 408.4737
510.7865, 395.0519
511.2686, 380.8556
511.7507, 366.8434
512.2328, 353.1836
512.7150, 339.3341
513.1971, 324.6600
513.6792, 309.4542
514.1613, 294.4130
514.6434, 279.6507
515.1255, 264.7488
515.6077, 248.9521
516.0898, 232.7397
516.5719, 218.1392
517.0540, 205.9484
517.5361, 194.5677
518.0182, 183.5814
518.5004, 172.8508
518.9825, 161.9766
519.4646, 150.8196
519.9467, 140.1305
520.4288, 130.8499
520.9109, 123.1834
521.3931, 115.5009
521.8752, 107.1917
522.3573, 99.42660
522.8394, 92.98682
523.3215, 87.26043
523.8036, 81.31792
524.2858, 74.78947
524.7679, 68.06902
525.2500, 61.95030
525.7321, 56.46741
526.2142, 51.65413
526.6964, 47.88335
527.1785, 44.21110
527.6606, 40.12217
528.1427, 35.77618
528.6248, 31.43816
529.1069, 27.10714
529.5891, 23.00360
530.0712, 19.49805
530.5533, 16.61501
531.0354, 14.39754
531.5175, 13.12589
531.9996, 12.13424
532.4818, 10.52089
532.9639, 8.360373
533.4460, 6.425755
533.9281, 5.069977
534.4102, 3.825746
534.8923, 2.245547
535.3745, 0.4863420
535.8566, 1.134756
536.3387, 2.540140
536.8208, 3.563012
537.3029, 3.694734
537.7850, 2.071712
538.2672, 1.194849
538.7493, 2.024206
539.2314, 2.803742
539.7135, 2.171124
540.1956, 0.5224260
540.6777, 0.8034720
541.1599, 0.8689570
541.6420, 0.3495830
542.1241, 1.178402
542.6062, 3.843223
543.0883, 6.348335
543.5704, 8.180581
544.0526, 9.905194
544.5347, 11.98829
545.0168, 14.29426
545.4989, 16.17923
545.9810, 16.67249
546.4631, 16.89554
546.9453, 18.90657
547.4274, 22.63529
547.9095, 26.10374
548.3916, 28.54727
548.8737, 30.41533
549.3558, 32.44865
549.8380, 34.55809
550.3201, 36.89877
550.8022, 39.67856
551.2843, 42.69958
551.7664, 45.76115
552.2485, 48.80731
552.7307, 52.01778
553.2128, 55.59079
553.6949, 59.24812
554.1770, 62.08438
554.6591, 63.36523
555.1412, 65.05753
555.6234, 67.65124
556.1055, 70.22278
556.5876, 72.07603
557.0697, 73.38589
557.5518, 74.82923
558.0339, 76.87812
558.5161, 79.26741
558.9982, 81.58640
559.4803, 84.00768
559.9624, 85.32184
560.4445, 84.79719
560.9266, 83.33282
561.4088, 81.70879
561.8909, 79.94948
562.3730, 78.20943
562.8551, 76.96233
563.3372, 75.47222
563.8193, 72.73886
564.3015, 68.96626
564.7836, 65.23939
565.2657, 62.00438
565.7478, 59.15967
566.2299, 56.52512
566.7120, 54.27240
567.1942, 51.80019
567.6763, 49.16032
568.1584, 46.27556
568.6405, 42.72879
569.1226, 38.92280
569.6047, 35.72163
570.0869, 33.62121
570.5690, 32.07995
571.0511, 30.03041
571.5332, 27.34100
572.0153, 24.54792
572.4974, 21.31881
572.9796, 18.40385
573.4617, 16.22589
573.9438, 14.66066
574.4259, 13.39226
574.9080, 12.40130
575.3901, 11.50163
575.8723, 10.52420
576.3544, 9.465434
576.8365, 8.229226
577.3186, 6.728394
577.8007, 5.265618
578.2828, 4.220284
578.7650, 3.613265
579.2471, 2.952120
579.7292, 2.168982
580.2113, 1.390854
580.6934, 0.4680770
581.1755, 0.3502120
581.6577, 0.5128350
582.1398, 0.1187850
582.6219, 0.7990570
583.1040, 0.3917280
583.5861, 1.345076
584.0682, 0.9589550
584.5504, 1.196728
585.0325, 0.3604680
585.5146, 0.1634310
585.9967, 0.4511650
586.4788, 1.115181
586.9609, 0.4126950
587.4431, 0.6344030
587.9252, 0.9982870
588.4073, 0.8316750
588.8894, 0.6467530
589.3715, 0.4791240
589.8536, 0.2993680
590.3358, 2.0854000E-02
590.8179, 0.2621510
591.3000, 0.2588500
591.7821, 0.1339580
592.2642, 0.6289930
592.7463, 1.391860
593.2285, 2.062580
593.7106, 2.048739
594.1927, 1.367484
594.6748, 0.7386310
595.1569, 0.8202240
595.6390, 1.508781
596.1212, 1.649363
596.6033, 0.5809690
597.0854, 0.1402480
597.5675, 0.2573240
598.0496, 0.8554690
598.5317, 0.9436680
599.0139, 0.4692660
599.4960, 9.7342998E-02
599.9781, 0.6326990
600.4602, 0.7182760
600.9423, 0.5264040
601.4244, 0.6558160
601.9066, 0.6278820
602.3887, 0.1494490
602.8708, 0.2539650
603.3529, 0.3727200
603.8350, 0.1128960
604.3171, 0.1774650
604.7993, 0.3414890
605.2814, 2.0496000E-02
605.7635, 0.3292920
606.2456, 0.5404850
606.7277, 0.8481010
607.2098, 0.2152790
607.6920, 0.5874520
608.1741, 1.027515
608.6562, 0.5887180
609.1383, 0.3945300
609.6204, 0.8910930
610.1025, 1.137957
610.5847, 0.6708770
611.0668, 0.5821700
611.5489, 1.168339
612.0310, 1.274692
612.5131, 1.123956
612.9952, 0.8523990
613.4774, 0.4798700
613.9595, 0.5677220
614.4416, 0.9689810
614.9237, 1.534567
615.4058, 2.586603
615.8879, 3.823706
616.3701, 4.218225
616.8522, 3.123920
617.3343, 2.591205
617.8164, 3.508262
618.2985, 4.800566
618.7806, 5.272073
619.2628, 5.134084
619.7449, 5.775334
620.2270, 8.242696
620.7091, 11.43534
621.1912, 11.96574
621.6733, 8.706297
622.1555, 6.148812
622.6376, 5.052446
623.1197, 4.602259
623.6018, 4.443203
624.0839, 4.586208
624.5660, 5.206444
625.0482, 6.785111
625.5303, 8.208500
626.0124, 8.081469
626.4945, 6.832912
626.9766, 5.880676
627.4587, 5.540679
627.9409, 5.639459
628.4230, 6.143872
628.9051, 7.038356
629.3872, 7.359410
629.8693, 6.567483
630.3514, 5.978858
630.8336, 6.093658
631.3157, 6.401571
631.7978, 6.309147
632.2799, 5.785813
632.7620, 5.300010
633.2441, 5.319145
633.7263, 5.648704
634.2084, 5.478199
634.6905, 4.662364
635.1726, 3.888765
635.6547, 3.107656
636.1368, 2.703438
636.6190, 3.298914
637.1011, 4.795878
637.5832, 5.805418
638.0653, 5.543838
638.5474, 4.941990
639.0295, 4.783439
639.5117, 4.892096
639.9938, 4.693983
640.4759, 3.953129
640.9580, 3.038042
641.4401, 2.340961
641.9222, 2.011828
642.4044, 1.702803
642.8865, 1.587166
643.3686, 1.362551
643.8507, 0.5631270
644.3328, 0.1760050
644.8149, 8.8919997E-03
645.2971, 0.7789060
645.7792, 1.953676
646.2613, 3.024999
646.7434, 3.905891
647.2255, 4.301720
647.7076, 4.189853
648.1898, 3.982242
648.6719, 3.874086
649.1540, 3.731274
649.6361, 3.205112
650.1182, 2.088005
650.6003, 1.565486
651.0825, 2.398845
651.5646, 3.224461
652.0467, 3.386605
652.5288, 2.971828
653.0109, 2.044928
653.4930, 0.6555150
653.9752, 0.2160490
654.4573, 0.4288420
654.9394, 0.3617800
655.4215, 0.1455440
655.9036, 0.4460140
656.3857, 0.2785530
656.8679, 0.5228260
657.3500, 1.5910000E-03
657.8321, 0.4494190
658.3142, 0.8761180
658.7963, 0.8593120
659.2784, 0.3742550
659.7606, 0.1441130
660.2427, 2.7634000E-02
660.7248, 0.8679530
661.2069, 0.4195100
661.6890, 0.1923260
662.1711, 0.3053020
662.6533, 0.3926290
663.1354, 0.3246500
663.6175, 0.4772420
664.0996, 0.9833780
664.5817, 1.252703
665.0638, 1.008460
665.5460, 0.7629660
666.0281, 0.2342850
666.5102, 0.6201410
666.9923, 1.167571
667.4744, 0.3022920
667.9565, 1.179699
668.4387, 1.064115
668.9208, 0.7724260
669.4029, 2.325522
669.8850, 2.555232
670.3671, 1.906855
670.8492, 1.179256
671.3314, 9.9997997E-02
671.8135, 0.2769960
672.2956, 0.8111540
672.7777, 1.868032
673.2598, 1.904178
673.7419, 1.395786
674.2241, 1.259669
674.7062, 1.826580
675.1883, 2.607871
675.6704, 3.015960
676.1525, 3.089551
676.6346, 3.300016
677.1168, 3.669821
677.5989, 4.141594
678.0810, 4.635752
678.5631, 5.257580
679.0452, 6.237493
679.5273, 7.687612
680.0095, 8.929225
680.4916, 10.14808
680.9737, 10.78715
681.4558, 9.994708
681.9379, 8.329663
682.4200, 7.012459
682.9022, 6.547684
683.3843, 6.680460
683.8664, 7.211265
684.3485, 8.204739
684.8306, 8.531486
685.3127, 7.675269
685.7949, 7.068298
686.2770, 7.603023
686.7591, 8.525781
687.2412, 9.083776
687.7233, 9.194663
688.2054, 9.056083
688.6876, 8.475050
689.1697, 7.894430
689.6518, 7.808801
690.1339, 8.139976
690.6160, 8.614221
691.0981, 9.129906
691.5803, 9.626429
692.0624, 10.06132
692.5445, 10.47681
693.0266, 10.37809
693.5087, 9.204978
693.9908, 8.267615
694.4730, 8.250129
694.9551, 8.455879
695.4372, 7.999391
695.9193, 6.812582
696.4014, 5.882893
696.8835, 6.040656
697.3657, 6.625036
697.8478, 6.774786
698.3299, 6.536827
698.8120, 6.276298
699.2941, 6.143413
699.7762, 5.871963
700.2584, 4.999550
700.7405, 3.413135
701.2226, 2.743306
701.7047, 3.868797
702.1868, 4.768976
702.6689, 5.092379
703.1511, 5.201180
703.6332, 5.325789
704.1153, 5.470074
704.5974, 5.517294
705.0795, 5.372054
705.5616, 5.092897
706.0438, 4.576395
706.5259, 3.930185
707.0080, 4.042158
707.4901, 5.314269
707.9722, 6.540033
708.4543, 6.373857
708.9365, 4.870111
709.4186, 4.031570
709.9007, 4.350970
710.3828, 4.617385
710.8649, 4.632807
711.3470, 4.522274
711.8292, 4.330003
712.3113, 4.131653
712.7934, 3.898243
713.2755, 3.583368
713.7576, 3.280272
714.2397, 3.243525
714.7219, 3.368324
715.2040, 3.221163
715.6861, 2.634892
716.1682, 2.058782
716.6503, 1.878868
717.1324, 2.102511
717.6146, 2.524436
718.0967, 3.459834
718.5788, 3.965475
719.0609, 3.968497
719.5430, 3.638622
720.0251, 2.847514
720.5073, 1.840436
720.9894, 1.124286
721.4715, 0.9399000
721.9536, 1.111207
722.4357, 1.764428
722.9178, 2.711475
723.4000, 2.358146
723.8821, 0.2742650
724.3642, 1.184155
724.8463, 0.4114280
725.3284, 1.773098
725.8105, 3.278737
726.2927, 4.206094
726.7748, 4.557591
727.2569, 3.819714
727.7390, 2.894186
728.2211, 1.952961
728.7032, 1.272427
729.1854, 1.407878
729.6675, 2.486899
730.1496, 3.651596
730.6317, 3.812909
731.1138, 3.291208
731.5959, 3.347663
732.0781, 4.048135
732.5602, 4.666975
733.0423, 4.871116
733.5244, 4.931370
734.0065, 5.264549
734.4886, 5.946890
734.9708, 6.427172
735.4529, 6.126148
735.9350, 6.311524
736.4171, 7.892642
736.8992, 9.908308
737.3813, 11.39808
737.8635, 12.16023
738.3456, 12.40076
738.8277, 12.03964
739.3098, 11.49279
739.7919, 11.83544
740.2740, 12.97666
740.7562, 13.38831
741.2383, 12.52377
741.7204, 11.51255
742.2025, 11.40903
742.6846, 12.12116
743.1667, 12.66466
743.6489, 12.63530
744.1310, 13.01841
744.6131, 14.52279
745.0952, 15.97052
745.5773, 16.26047
746.0594, 15.73710
746.5416, 15.52966
747.0237, 16.20422
747.5058, 17.17725
747.9879, 17.70660
748.4700, 17.93401
748.9521, 18.39877
749.4343, 19.16331
749.9164, 19.99971
750.3985, 20.78860
750.8806, 21.54869
751.3627, 22.36362
751.8448, 23.42879
752.3270, 24.00162
752.8091, 23.78639
753.2912, 23.44817
753.7733, 23.06638
754.2554, 22.81148
754.7375, 22.93273
755.2197, 23.46919
755.7018, 24.09970
756.1839, 24.60622
756.6660, 25.10136
757.1481, 25.68545
757.6302, 26.31590
758.1124, 26.78477
758.5945, 26.93310
759.0766, 27.18823
759.5587, 28.12664
760.0408, 29.73272
760.5229, 31.12716
761.0051, 31.85012
761.4872, 33.07859
761.9693, 36.16546
762.4514, 38.81855
762.9335, 38.67162
763.4156, 36.51535
763.8978, 35.26445
764.3799, 36.57067
764.8620, 38.32870
765.3441, 38.84945
765.8262, 38.61559
766.3083, 38.37714
766.7905, 38.30426
767.2726, 38.56866
767.7547, 39.30497
768.2368, 40.10309
768.7189, 39.84570
769.2010, 37.90063
769.6832, 37.27911
770.1653, 38.93965
770.6474, 40.59679
771.1295, 41.33262
771.6116, 41.61215
772.0938, 42.07295
772.5759, 42.81965
773.0580, 43.15788
773.5401, 42.42803
774.0222, 41.58847
774.5043, 41.62302
774.9865, 42.10266
775.4686, 42.01386
775.9507, 41.19621
776.4328, 40.40235
776.9149, 40.34515
777.3970, 40.82271
777.8792, 40.83007
778.3613, 40.26147
778.8434, 39.70271
779.3255, 39.18894
779.8076, 38.87153
780.2897, 39.16749
780.7719, 39.85572
781.2540, 39.88400
781.7361, 38.34841
782.2182, 37.47855
782.7003, 38.74503
783.1824, 40.19958
783.6646, 40.10266
784.1467, 38.85393
784.6288, 37.74257
785.1109, 37.31675
785.5930, 37.23935
786.0751, 37.21253
786.5573, 37.19503
787.0394, 36.90175
787.5215, 36.29742
788.0036, 36.13249
788.4857, 36.91241
788.9678, 37.85007
789.4500, 37.72629
789.9321, 36.35114
790.4142, 35.45928
790.8963, 35.64429
791.3784, 35.52074
791.8605, 34.59469
792.3427, 33.42002
792.8248, 32.43896
793.3069, 31.64076
793.7890, 30.76364
794.2711, 29.66843
794.7532, 28.67508
795.2354, 28.16284
795.7175, 27.94600
796.1996, 27.82609
796.6817, 27.68598
797.1638, 26.85874
797.6459, 24.86919
798.1281, 22.24195
798.6102, 20.10457
799.0923, 18.40841
799.5744, 17.52993
800.0565, 18.26533
800.5386, 18.57868
801.0208, 17.23873
801.5029, 15.15560
801.9850, 13.21638
802.4671, 11.48630
802.9492, 10.17466
803.4313, 9.712869
803.9135, 9.313046
804.3956, 8.163215
804.8777, 6.924413
805.3598, 6.823460
805.8419, 7.849857
806.3240, 8.652653
806.8062, 8.181053
807.2883, 6.937934
807.7704, 6.078324
808.2525, 5.549787
808.7346, 4.294404
809.2167, 1.904149
809.6989, 6.6470001E-03
810.1810, 9.5564999E-02
810.6631, 0.9130330
811.1452, 1.289016
811.6273, 0.5879780
812.1094, 0.3546580
812.5916, 1.484808
813.0737, 2.098237
813.5558, 0.9182190
814.0379, 0.9114070
814.5200, 1.131890
815.0021, 1.102288
815.4843, 1.441615
815.9664, 0.8116850
816.4485, 4.0647000E-02
816.9306, 1.051036
817.4127, 2.229293
817.8948, 3.082169
818.3770, 3.474635
818.8591, 2.926538
819.3412, 0.8670670
819.8233, 0.5500350
820.3054, 0.3590040
820.7875, 1.151357
821.2697, 0.2729750
821.7518, 0.7697370
822.2339, 0.7983070
822.7160, 0.4810560
823.1981, 0.3291510
823.6802, 7.2110002E-03
824.1624, 0.5902130
824.6445, 0.9032000
825.1266, 0.6177710
825.6087, 0.2845290
826.0908, 0.3973710
826.5729, 0.5417230
827.0551, 0.1813890
827.5372, 0.7898960
828.0193, 0.5722560
828.5014, 3.310530
828.9835, 5.839607
829.4656, 5.332312
829.9478, 2.445321
830.4299, 0.2099430
830.9120, 0.7086050
831.3941, 0.5550390
831.8762, 9.8885000E-02
832.3583, 1.146606
832.8404, 1.066469
833.3225, 0.2075850
833.8046, 0.9898050
834.2867, 0.5002360
834.7689, 0.2335490
835.2510, 0.4101490
835.7331, 0.1106600
836.2152, 0.7039610
836.6973, 1.360520
837.1794, 1.363496
837.6616, 0.4458700
838.1437, 0.9015460
838.6258, 0.4343600
839.1079, 9.5863000E-02
839.5900, 0.5241620
840.0721, 0.3116030
840.5543, 0.1824420
841.0364, 0.7399280
841.5185, 1.546829
842.0006, 1.909356
842.4827, 1.866879
842.9648, 1.590428
843.4470, 1.068762
843.9291, 0.6261570
844.4112, 0.3558740
844.8933, 0.4292230
845.3754, 1.258690
845.8575, 3.089517
846.3397, 4.126048
846.8218, 4.012511
847.3039, 3.563479
847.7860, 2.664817
848.2681, 1.711663
848.7502, 0.9999170
849.2324, 0.5243300
849.7145, 0.1401820
850.1966, 3.1759001E-02
850.6787, 0.1774590
851.1608, 0.5548280
851.6429, 1.786329
852.1251, 1.860549
852.6072, 1.119653
853.0893, 0.9960140
853.5714, 2.088323
854.0535, 3.329563
854.5356, 3.152472
855.0178, 1.970261
855.4999, 1.901640
855.9820, 2.987871
856.4641, 3.404611
856.9462, 2.484622
857.4283, 1.218324
857.9105, 0.5147700
858.3926, 0.3475770
858.8747, 0.5035680
859.3568, 1.407401
859.8389, 1.894057
860.3210, 1.635657
860.8032, 1.244137
861.2853, 0.8860620
861.7674, 0.6396180
862.2495, 0.6402910
862.7316, 0.9304420
863.2137, 1.261115
863.6959, 1.631396
864.1780, 1.897364
864.6601, 1.807918
865.1422, 1.589194
865.6243, 1.805399
866.1064, 2.412895
866.5886, 2.497129
867.0707, 1.191585
867.5528, 0.9432080
868.0349, 1.134955
868.5170, 0.4216700
868.9991, 1.576669
869.4813, 2.644502
869.9634, 2.926129
870.4455, 1.871749
870.9276, 0.2679200
871.4097, 0.9622550
871.8918, 0.5370380
872.3740, 0.2741630
872.8561, 0.2995280
873.3382, 0.2640000
873.8203, 0.1402580
874.3024, 1.9910000E-03
874.7845, 0.1748880
875.2667, 0.3701840
875.7488, 0.6109380
876.2309, 1.001779
876.7130, 1.260790
877.1951, 1.182465
877.6772, 0.9605490
878.1594, 0.8982280
878.6415, 0.8870290
879.1236, 0.6236640
879.6057, 7.2405003E-02
880.0878, 0.2184770
880.5699, 0.1022800
881.0521, 1.219300
881.5342, 1.584836
882.0163, 1.356951
882.4984, 1.295986
882.9805, 1.609593
883.4626, 1.879612
883.9448, 1.612210
884.4269, 1.326576
884.9090, 2.939640
885.3911, 7.160085
885.8732, 9.113865
886.3553, 7.639593
886.8375, 5.803385
887.3196, 4.993868
887.8017, 4.633039
888.2838, 3.755075
888.7659, 2.239306
889.2480, 1.287779
889.7302, 1.490982
890.2123, 1.617923
890.6944, 1.080094
891.1765, 0.5283080
891.6586, 0.5415610
892.1407, 1.084126
892.6229, 1.600390
893.1050, 1.858410
893.5871, 2.332276
894.0692, 3.955018
894.5513, 5.446330
895.0334, 4.882315
895.5156, 3.010445
895.9977, 1.972218
896.4798, 2.415968
896.9619, 3.254138
897.4440, 3.438101
897.9261, 3.302596
898.4083, 3.623444
898.8904, 4.417602
899.3725, 5.697021
899.8546, 7.529977
900.3367, 9.172002
900.8188, 10.27873
901.3010, 10.70907
901.7831, 10.15214
902.2652, 8.382161
902.7473, 6.986842
903.2294, 5.773158
903.7115, 5.295716
904.1937, 6.232191
904.6758, 7.498024
905.1579, 8.366678
905.6400, 8.810012
906.1221, 8.703829
906.6042, 7.633203
907.0864, 6.759892
907.5685, 6.167629
908.0506, 6.027354
908.5327, 6.793467
909.0148, 8.071031
909.4969, 9.111859
909.9791, 9.745625
910.4612, 10.34318
910.9433, 11.49339
911.4254, 12.40213
911.9075, 11.73729
912.3896, 10.35191
912.8718, 10.09222
913.3539, 11.02922
913.8360, 11.84683
914.3181, 11.78015
914.8002, 11.49774
915.2823, 12.31952
915.7645, 13.97542
916.2466, 14.52881
916.7287, 13.95083
917.2108, 12.72433
917.6929, 10.74148
918.1750, 9.162115
918.6572, 9.345803
919.1393, 10.84210
919.6214, 10.86469
920.1035, 8.117020
920.5856, 7.187441
921.0677, 9.827067
921.5499, 12.26308
922.0320, 12.53782
922.5141, 11.64209
922.9962, 10.79609
923.4783, 10.04965
923.9604, 9.157616
924.4426, 7.639608
924.9247, 6.511856
925.4068, 6.190079
925.8889, 6.290438
926.3710, 6.769398
926.8531, 7.343025
927.3353, 7.432160
927.8174, 6.826046
928.2995, 5.881554
928.7816, 4.331224
929.2637, 2.915247
929.7458, 2.644606
930.2280, 3.082947
930.7101, 3.256027
931.1922, 3.000131
931.6743, 2.891552
932.1564, 3.432094
932.6385, 4.090651
933.1207, 3.690182
933.6028, 2.548094
934.0849, 2.182560
934.5670, 2.672025
935.0491, 2.971324
935.5313, 2.629072
936.0134, 1.983921
936.4955, 1.439755
936.9776, 0.9716240
937.4597, 0.3342080
937.9418, 0.2754890
938.4240, 0.1688420
938.9061, 6.8168998E-02
939.3882, 0.3757930
939.8703, 0.2647750
940.3524, 5.2439000E-02
940.8345, 0.2969600
941.3167, 1.367439
941.7988, 2.008675
942.2809, 0.6471980
942.7630, 0.4019880
943.2451, 0.2608710
943.7272, 0.3075490
944.2094, 0.6546110
944.6915, 1.900746
945.1736, 2.188060
945.6557, 0.6641350
946.1378, 0.2397540
946.6199, 1.308462
947.1021, 2.810466
947.5842, 2.077542
948.0663, 0.3494220
948.5484, 0.4009310
949.0305, 8.1987001E-02
949.5126, 0.6770700
949.9948, 0.8331130
950.4769, 0.6783480
950.9590, 0.2209400
951.4411, 0.3873900
951.9232, 6.1429001E-02
952.4053, 0.6037990
952.8875, 0.7548660
953.3696, 0.3590370
953.8517, 0.1459960
954.3338, 0.2414600
954.8159, 0.1453940
955.2980, 0.3801760
955.7802, 6.9702998E-02
956.2623, 0.3424440
956.7444, 0.5591760
957.2265, 0.4860100
957.7086, 7.7709998E-03
958.1907, 0.1893810
958.6729, 1.432233
959.1550, 4.956481
959.6371, 6.477358
960.1192, 5.432491
960.6013, 4.814050
961.0834, 5.453296
961.5656, 6.519161
962.0477, 7.640985
962.5298, 8.501862
963.0119, 8.091784
963.4940, 5.595233
963.9761, 3.890503
964.4583, 3.297874
964.9404, 3.166228
965.4225, 3.348702
965.9046, 3.881152
966.3867, 4.999812
966.8688, 6.532795
967.3510, 7.491018
967.8331, 7.583196
968.3152, 7.454956
968.7973, 6.646094
969.2794, 6.291867
969.7615, 7.604913
970.2437, 9.550289
970.7258, 10.71041
971.2079, 10.91908
971.6900, 10.65728
972.1721, 9.344422
972.6542, 8.720387
973.1364, 10.93971
973.6185, 13.63962
974.1006, 13.92779
974.5827, 12.46651
975.0648, 11.16297
975.5469, 10.71463
976.0291, 11.41465
976.5112, 14.80137
976.9933, 18.27448
977.4754, 17.75100
977.9575, 14.73260
978.4396, 12.00944
978.9218, 10.19682
979.4039, 9.704571
979.8860, 10.74683
980.3681, 12.31343
980.8502, 13.25806
981.3323, 13.59390
981.8145, 13.17270
982.2966, 12.09220
982.7787, 11.08651
983.2608, 10.32036
983.7429, 9.812169
984.2250, 9.557395
984.7072, 9.639500
985.1893, 10.42690
985.6714, 11.96539
986.1535, 12.57911
986.6356, 12.13859
987.1177, 11.47028
987.5999, 10.71966
988.0820, 10.01967
988.5641, 9.463523
989.0462, 9.064197
989.5283, 8.913486
990.0104, 9.174499
990.4926, 9.122600
990.9747, 8.499002
991.4568, 8.054046
991.9389, 8.145680
992.4210, 8.400757
992.9031, 8.427427
993.3853, 8.276553
993.8674, 8.296322
994.3495, 9.014393
994.8316, 9.026566
995.3137, 7.478631
995.7958, 6.171522
996.2780, 6.079493
996.7601, 6.504318
997.2422, 6.727140
997.7243, 6.715931
998.2064, 6.555672
998.6885, 6.089499
999.1707, 5.743134
999.6528, 5.753275
1000.135, 5.739638
1000.617, 5.389221
1001.099, 4.881099
1001.581, 4.385998
1002.063, 3.965952
1002.545, 3.764138
1003.028, 4.257423
1003.510, 4.382078
1003.992, 3.033392
1004.474, 1.511103
1004.956, 0.9917120
1005.438, 1.239683
1005.920, 1.646605
1006.402, 2.005646
1006.885, 2.378949
1007.367, 2.911541
1007.849, 3.230841
1008.331, 2.887510
1008.813, 2.182081
1009.295, 1.442024
1009.777, 0.7309730
1010.259, 0.2629510
1010.741, 0.2831280
1011.224, 0.6695020
1011.706, 0.3684510
1012.188, 3.146478
1012.670, 2.729962
1013.152, 0.4244950
1013.634, 0.5481960
1014.116, 0.6242150
1014.598, 7.9053000E-02
1015.081, 0.8064490
1015.563, 1.493720
1016.045, 1.430153
1016.527, 0.8790850
1017.009, 0.2898950
1017.491, 0.2630760
1017.973, 0.3075930
1018.455, 0.1406340
1018.937, 0.1272140
1019.420, 0.5456070
1019.902, 0.4827440
1020.384, 0.2539170
1020.866, 0.4108600
1021.348, 1.225336
1021.830, 3.168929
1022.312, 3.100400
1022.794, 0.5107740
1023.276, 0.1748330
1023.759, 0.1663060
1024.241, 0.1878430
1024.723, 1.874146
1025.205, 4.407471
1025.687, 4.708759
1026.169, 2.459899
1026.651, 0.5605450
1027.133, 0.5771900
1027.616, 0.7116520
1028.098, 0.2715900
1028.580, 1.820342
1029.062, 2.354101
1029.544, 1.813844
1030.026, 2.625718
1030.508, 5.597220
1030.990, 6.873124
1031.473, 4.942138
1031.955, 3.222842
1032.437, 4.270656
1032.919, 6.388680
1033.401, 6.216500
1033.883, 3.446928
1034.365, 1.414863
1034.847, 4.7979001E-02
1035.329, 0.3112770
1035.812, 0.9533010
1036.294, 2.373722
1036.776, 3.166048
1037.258, 3.414325
1037.740, 3.200893
1038.222, 2.424674
1038.704, 1.851110
1039.186, 1.348184
1039.668, 1.348996
1040.151, 2.117450
1040.633, 2.904731
1041.115, 3.222373
1041.597, 3.354042
1042.079, 3.764838
1042.561, 4.525062
1043.043, 5.079602
1043.525, 5.131465
1044.008, 5.388598
1044.490, 6.448290
1044.972, 7.261190
1045.454, 6.931309
1045.936, 5.999198
1046.418, 5.441290
1046.900, 5.375548
1047.382, 5.434177
1047.865, 5.463935
1048.347, 5.674839
1048.829, 6.312092
1049.311, 6.902354
1049.793, 7.012379
1050.275, 6.937253
1050.757, 7.462694
1051.239, 8.744836
1051.721, 8.812566
1052.203, 5.417554
1052.686, 3.331664
1053.168, 5.133501
1053.650, 7.485390
1054.132, 8.273077
1054.614, 8.019031
1055.096, 7.461213
1055.578, 6.716075
1056.060, 6.627964
1056.543, 8.267220
1057.025, 9.401956
1057.507, 9.172257
1057.989, 8.433644
1058.471, 7.587124
1058.953, 6.872195
1059.435, 6.661587
1059.917, 7.050815
1060.400, 7.403038
1060.882, 7.639980
1061.364, 7.577589
1061.846, 6.606278
1062.328, 5.760679
1062.810, 5.753256
1063.292, 6.339159
1063.774, 7.305697
1064.256, 8.476877
1064.739, 9.210794
1065.221, 9.329955
1065.703, 9.008718
1066.185, 7.608294
1066.667, 6.516925
1067.149, 7.416605
1067.631, 8.874124
1068.113, 8.412851
1068.595, 6.158897
1069.078, 4.822645
1069.560, 5.830716
1070.042, 6.958768
1070.524, 7.537223
1071.006, 7.567485
1071.488, 6.579233
1071.970, 5.314811
1072.452, 4.584641
1072.935, 4.489804
1073.417, 5.049568
1073.899, 6.646800
1074.381, 7.770754
1074.863, 6.943834
1075.345, 6.218222
1075.827, 7.601625
1076.309, 9.538901
1076.792, 10.04014
1077.274, 9.093494
1077.756, 7.719117
1078.238, 6.039135
1078.720, 4.802482
1079.202, 4.650516
1079.684, 4.780293
1080.166, 4.807107
1080.648, 4.772587
1081.130, 4.606723
1081.613, 4.473152
1082.095, 4.822832
1082.577, 5.878304
1083.059, 6.569344
1083.541, 6.143268
1084.023, 5.581216
1084.505, 5.531810
1084.987, 5.496579
1085.469, 4.830297
1085.952, 3.942498
1086.434, 3.738618
1086.916, 4.446379
1087.398, 4.978867
1087.880, 4.879176
1088.362, 4.523096
1088.844, 3.718615
1089.326, 3.071507
1089.809, 2.966963
1090.291, 3.463884
1090.773, 5.155777
1091.255, 7.939859
1091.737, 8.947970
1092.219, 5.291311
1092.701, 2.249361
1093.183, 2.181767
1093.666, 3.119131
1094.148, 4.198189
1094.630, 4.973753
1095.112, 4.972799
1095.594, 4.181476
1096.076, 2.883718
1096.558, 0.5033540
1097.040, 0.9738980
1097.522, 0.4370560
1098.005, 0.3850370
1098.487, 0.1156760
1098.969, 0.4393680
1099.451, 0.1433580
1099.933, 0.8333310
1100.415, 1.378177
1100.897, 1.129427
1101.379, 0.7926480
1101.861, 0.3218800
1102.344, 7.1675003E-02
1102.826, 0.7660710
1103.308, 1.259771
1103.790, 6.3496001E-02
1104.272, 2.7858000E-02
1104.754, 0.7801610
1105.236, 0.5046630
1105.718, 0.8546940
1106.201, 0.3243710
1106.683, 1.2780000E-02
1107.165, 0.1282210
1107.647, 0.1373440
1108.129, 7.4106000E-02
1108.611, 0.1170640
1109.093, 0.6184580
1109.575, 1.236889
1110.057, 0.6528020
1110.540, 0.6619890
1111.022, 0.4846430
1111.504, 0.8067960
1111.986, 1.390513
1112.468, 0.4614910
1112.950, 0.1157590
1113.432, 1.159550
1113.914, 0.7475440
1114.396, 2.7150000E-02
1114.879, 1.477087
1115.361, 0.5685740
1115.843, 1.049243
1116.325, 1.105611
1116.807, 0.6296100
1117.289, 2.255271
1117.771, 1.876768
1118.253, 8.4893003E-02
1118.736, 1.171996
1119.218, 1.343590
1119.700, 2.351881
1120.182, 1.079258
1120.664, 8.7862998E-02
1121.146, 0.7316720
1121.628, 0.8253970
1122.110, 0.1978810
1122.593, 0.8356560
1123.075, 1.616546
1123.557, 2.125995
1124.039, 2.615466
1124.521, 3.122439
1125.003, 3.425662
1125.485, 3.377430
1125.967, 3.495783
1126.449, 4.101245
1126.932, 4.869421
1127.414, 5.350113
1127.896, 5.610221
1128.378, 6.204735
1128.860, 7.231863
1129.342, 7.405088
1129.824, 6.452825
1130.306, 6.201227
1130.788, 7.417224
1131.271, 8.776908
1131.753, 9.007932
1132.235, 8.562203
1132.717, 8.471841
1133.199, 8.744547
1133.681, 9.667953
1134.163, 11.21991
1134.645, 12.59556
1135.128, 13.59883
1135.610, 14.15028
1136.092, 14.16874
1136.574, 14.07553
1137.056, 14.53107
1137.538, 15.38634
1138.020, 16.24756
1138.502, 17.06538
1138.984, 17.40947
1139.467, 17.36853
1139.949, 17.78491
1140.431, 18.99282
1140.913, 20.50411
1141.395, 22.03179
1141.877, 23.25876
1142.359, 23.39335
1142.841, 22.99360
1143.323, 23.09670
1143.806, 23.70440
1144.288, 24.63573
1144.770, 25.78403
1145.252, 26.88902
1145.734, 27.73027
1146.216, 28.75001
1146.698, 30.85559
1147.180, 32.93955
1147.663, 33.60222
1148.145, 33.41859
1148.627, 33.11865
1149.109, 32.98952
1149.591, 33.29787
1150.073, 34.12812
1150.555, 35.49197
1151.037, 38.19976
1151.520, 40.49899
1152.002, 41.21129
1152.484, 41.04438
1152.966, 39.79476
1153.448, 38.55174
1153.930, 39.42204
1154.412, 42.38898
1154.894, 44.47438
1155.376, 44.20623
1155.859, 44.46796
1156.341, 46.29482
1156.823, 48.51170
1157.305, 51.10423
1157.787, 53.46779
1158.269, 55.02061
1158.751, 55.84041
1159.233, 56.19675
1159.715, 55.94462
1160.198, 55.93991
1160.680, 56.22078
1161.162, 56.79648
1161.644, 57.88103
1162.126, 58.90251
1162.608, 59.54211
1163.090, 60.03533
1163.572, 60.54272
1164.055, 61.12765
1164.537, 62.41070
1165.019, 64.72220
1165.501, 66.56031
1165.983, 67.73533
1166.465, 68.81398
1166.947, 69.94402
1167.429, 70.97665
1167.911, 71.98652
1168.394, 72.94882
1168.876, 73.89358
1169.358, 74.86411
1169.840, 75.45161
1170.322, 75.76050
1170.804, 76.26710
1171.286, 76.99863
1171.768, 78.07734
1172.250, 79.62869
1172.733, 81.32941
1173.215, 83.19546
1173.697, 84.85371
1174.179, 85.10075
1174.661, 84.36578
1175.143, 84.07950
1175.625, 84.40701
1176.107, 85.19502
1176.590, 86.24922
1177.072, 87.24767
1177.554, 87.88912
1178.036, 88.13456
1178.518, 87.56721
1179.000, 86.85659
1179.482, 87.06104
1179.964, 87.73746
1180.447, 88.27459
1180.929, 88.50530
1181.411, 88.05747
1181.893, 86.85562
1182.375, 86.11835
1182.857, 87.02505
1183.339, 87.95190
1183.821, 87.72579
1184.303, 87.38226
1184.786, 88.10287
1185.268, 89.03307
1185.750, 88.54874
1186.232, 86.90934
1186.714, 86.32036
1187.196, 87.67231
1187.678, 88.63934
1188.160, 88.78808
1188.642, 88.53136
1189.125, 87.86131
1189.607, 86.92812
1190.089, 85.76607
1190.571, 84.45676
1191.053, 83.06133
1191.535, 81.58107
1192.017, 80.51627
1192.499, 80.16686
1192.982, 79.31505
1193.464, 77.58289
1193.946, 76.36454
1194.428, 76.25529
1194.910, 76.47068
1195.392, 76.43157
1195.874, 76.06349
1196.356, 75.03078
1196.839, 73.38802
1197.321, 71.91564
1197.803, 70.62560
1198.285, 70.16349
1198.767, 70.47739
1199.249, 69.23507
1199.731, 65.43390
1200.213, 62.23038
1200.695, 63.21722
1201.177, 65.70676
1201.660, 65.33152
1202.142, 63.17263
1202.624, 61.05430
1203.106, 59.10723
1203.588, 57.23761
1204.070, 55.44543
1204.552, 53.85038
1205.034, 52.52734
1205.517, 51.16945
1205.999, 49.31066
1206.481, 47.65251
1206.963, 47.30087
1207.445, 46.85042
1207.927, 44.43300
1208.409, 41.17189
1208.891, 39.32418
1209.374, 38.97101
1209.856, 37.99990
1210.338, 35.15850
1210.820, 33.31267
1211.302, 33.98550
1211.784, 34.27401
1212.266, 32.95940
1212.748, 31.12074
1213.230, 29.12944
1213.713, 27.38594
1214.195, 26.90390
1214.677, 27.70471
1215.159, 27.07995
1215.641, 24.72030
1216.123, 22.27253
1216.605, 19.86630
1217.087, 17.44480
1217.569, 14.96543
1218.052, 12.60564
1218.534, 10.46196
1219.016, 8.783364
1219.498, 8.462622
1219.980, 9.014043
1220.462, 8.228939
1220.944, 6.358498
1221.426, 4.277432
1221.909, 2.274544
1222.391, 1.006915
1222.873, 0.6469440
1223.355, 0.1939820
1223.837, 1.217171
1224.319, 2.245575
1224.801, 1.042065
1225.283, 0.4409630
1225.766, 1.503144
1226.248, 2.099926
1226.730, 1.560540
1227.212, 1.433985
1227.694, 3.195703
1228.176, 2.109130
1228.658, 0.8241360
1229.140, 0.4761150
1229.622, 1.239691
1230.104, 0.7045100
1230.587, 0.2624580
1231.069, 0.8118090
1231.551, 1.754683
1232.033, 1.982247
1232.515, 1.449336
1232.997, 0.6786340
1233.479, 0.4215490
1233.961, 1.298237
1234.444, 1.952833
1234.926, 2.406765
1235.408, 2.643064
1235.890, 2.661486
1236.372, 2.323849
1236.854, 2.808681
1237.336, 5.770157
1237.818, 9.768096
1238.301, 10.97875
1238.783, 10.10759
1239.265, 9.771709
1239.747, 9.972045
1240.229, 9.999788
1240.711, 9.940619
1241.193, 11.06615
1241.675, 13.91254
1242.157, 16.63425
1242.640, 17.20916
1243.122, 17.78173
1243.604, 20.77070
1244.086, 24.16772
1244.568, 25.94999
1245.050, 26.84047
1245.532, 27.88637
1246.014, 29.23630
1246.496, 30.84240
1246.979, 32.78433
1247.461, 34.29774
1247.943, 34.57827
1248.425, 35.51340
1248.907, 38.48428
1249.389, 40.75730
1249.871, 40.81162
1250.353, 39.97322
1250.836, 39.20020
1251.318, 38.90937
1251.800, 41.22290
1252.282, 46.50553
1252.764, 48.43984
1253.246, 46.91162
1253.728, 45.70321
1254.210, 45.53388
1254.693, 45.88884
1255.175, 46.07541
1255.657, 46.95606
1256.139, 49.17869
1256.621, 50.24319
1257.103, 47.75925
1257.585, 43.91452
1258.067, 41.38633
1258.549, 39.64807
1259.031, 37.71698
1259.514, 35.90215
1259.996, 34.04428
1260.478, 32.00200
1260.960, 31.20425
1261.442, 34.00978
1261.924, 36.29015
1262.406, 35.37009
1262.888, 34.05813
1263.371, 34.18205
1263.853, 34.55404
1264.335, 33.58324
1264.817, 31.77023
1265.299, 29.82322
1265.781, 27.61601
1266.263, 26.84330
1266.745, 27.81140
1267.228, 28.75961
1267.710, 29.67967
1268.192, 29.19842
1268.674, 26.84253
1269.156, 24.81821
1269.638, 24.54618
1270.120, 24.71379
1270.602, 22.83918
1271.084, 20.13926
1271.567, 20.04179
1272.049, 18.00766
1272.531, 16.84569
1273.013, 16.21959
1273.495, 14.68699
1273.977, 15.32595
1274.459, 14.84391
1274.941, 11.25847
1275.423, 8.335960
1275.906, 8.455563
1276.388, 8.927078
1276.870, 8.836972
1277.352, 8.278031
1277.834, 7.235651
1278.316, 5.881046
1278.798, 4.287960
1279.280, 2.564322
1279.763, 1.368609
1280.245, 0.7485590
1280.727, 8.7261997E-02
1281.209, 0.4137100
1281.691, 2.1989999E-02
1282.173, 0.3181580
1282.655, 1.008374
1283.137, 1.134968
1283.620, 0.1433150
1284.102, 0.6818080
1284.584, 0.8822280
1285.066, 0.0000000E+00
##END=



