##NAMES=Anorthite
##RRUFFID=R060221
##IDEAL CHEMISTRY=CaAl_2_Si_2_O_8_
##LOCALITY=Pinacate lavafield, Sonora, Mexico
##OWNER=RRUFF
##SOURCE=Rock Currier
##DESCRIPTION=Light tan transparent fragment
##STATUS=The identification of this mineral has been confirmed by X-ray diffraction and chemical analysis
##URL=rruff.info/R060221
##MEASURED CHEMISTRY=(Ca_0.65_Na_0.34_K_0.01_)(Al_1.66_Fe^3+^_0.01_)Si_2.33_O_8_
155.7175, 0.0000000E+00
156.1996, 6.936551
156.6817, 7.466329
157.1639, 6.823812
157.6460, 9.137281
158.1281, 4.276489
158.6102, 0.2441830
159.0923, 2.170197
159.5744, 1.831375
160.0566, 0.1362940
160.5387, 3.996964
161.0208, 9.392665
161.5029, 16.46864
161.9850, 25.80482
162.4671, 37.88826
162.9493, 51.89445
163.4314, 67.21716
163.9135, 83.25619
164.3956, 101.0404
164.8777, 120.9343
165.3598, 142.9417
165.8420, 167.2575
166.3241, 194.1899
166.8062, 223.2254
167.2883, 253.9157
167.7704, 286.5164
168.2525, 320.1584
168.7346, 354.4367
169.2168, 389.4161
169.6989, 425.8206
170.1810, 465.2935
170.6631, 506.1042
171.1452, 546.3136
171.6273, 584.1931
172.1095, 621.3851
172.5916, 659.7827
173.0737, 699.4119
173.5558, 739.0103
174.0379, 778.9271
174.5201, 817.7761
175.0022, 854.0246
175.4843, 886.3924
175.9664, 916.5892
176.4485, 946.1102
176.9306, 975.0931
177.4128, 1001.824
177.8949, 1025.292
178.3770, 1045.419
178.8591, 1062.473
179.3412, 1076.436
179.8233, 1087.382
180.3055, 1096.271
180.7876, 1103.327
181.2697, 1106.019
181.7518, 1100.398
182.2339, 1088.118
182.7160, 1074.079
183.1982, 1061.713
183.6803, 1049.067
184.1624, 1031.449
184.6445, 1008.667
185.1266, 982.9974
185.6087, 956.4257
186.0909, 928.8320
186.5730, 901.1172
187.0551, 873.2612
187.5372, 845.5401
188.0193, 818.1819
188.5014, 792.1908
188.9836, 771.3222
189.4657, 754.5760
189.9478, 740.7435
190.4299, 729.0361
190.9120, 717.7887
191.3941, 706.4659
191.8763, 695.0891
192.3584, 682.4074
192.8405, 669.4662
193.3226, 658.2230
193.8047, 648.7302
194.2868, 638.1793
194.7690, 627.0688
195.2511, 616.6889
195.7332, 606.1248
196.2153, 594.2019
196.6974, 582.1320
197.1795, 570.6628
197.6617, 559.2053
198.1438, 546.7341
198.6259, 536.4010
199.1080, 528.3483
199.5901, 518.3247
200.0722, 505.8152
200.5544, 492.0500
201.0365, 479.4295
201.5186, 467.9681
202.0007, 456.9175
202.4828, 446.3038
202.9649, 436.2419
203.4471, 424.7015
203.9292, 411.1402
204.4113, 396.4566
204.8934, 382.1440
205.3755, 368.3416
205.8576, 354.8503
206.3398, 341.6987
206.8219, 328.9589
207.3040, 315.9887
207.7861, 302.9086
208.2682, 288.9266
208.7503, 274.6810
209.2325, 260.1518
209.7146, 246.3069
210.1967, 233.8063
210.6788, 223.0647
211.1609, 211.4817
211.6430, 198.5434
212.1252, 185.0504
212.6073, 173.1433
213.0894, 163.3950
213.5715, 153.8463
214.0536, 143.6977
214.5357, 132.8256
215.0179, 121.6464
215.5000, 109.8135
215.9821, 97.87985
216.4642, 87.12385
216.9463, 78.36383
217.4284, 69.46526
217.9105, 58.93507
218.3927, 45.72758
218.8748, 34.55235
219.3569, 25.84291
219.8390, 18.91808
220.3211, 12.28942
220.8032, 6.500164
221.2854, 0.1221270
221.7675, 9.021126
222.2496, 6.276591
222.7317, 3.537222
223.2138, 9.511587
223.6959, 12.70835
224.1781, 15.39174
224.6602, 16.91767
225.1423, 17.71583
225.6244, 13.14546
226.1065, 6.340899
226.5886, 0.4575240
227.0708, 4.606689
227.5529, 8.772091
228.0350, 11.84346
228.5171, 11.97459
228.9992, 10.57215
229.4813, 9.327469
229.9635, 8.266564
230.4456, 7.307270
230.9277, 6.459114
231.4098, 5.746502
231.8919, 5.141770
232.3740, 4.440554
232.8562, 4.219872
233.3383, 4.728134
233.8204, 6.134295
234.3025, 7.746214
234.7846, 9.561023
235.2667, 10.99121
235.7489, 8.603786
236.2310, 6.351028
236.7131, 3.416925
237.1952, 0.6665150
237.6773, 5.804489
238.1594, 0.2352940
238.6416, 5.455589
239.1237, 10.57204
239.6058, 4.337971
240.0879, 3.737651
240.5700, 11.97564
241.0521, 19.95518
241.5343, 27.57928
242.0164, 35.01933
242.4985, 41.76517
242.9806, 48.65100
243.4627, 57.01878
243.9448, 67.71726
244.4270, 78.37891
244.9091, 88.16971
245.3912, 96.77457
245.8733, 106.3051
246.3554, 117.4252
246.8375, 128.9218
247.3197, 139.0525
247.8018, 146.6476
248.2839, 154.9760
248.7660, 165.3080
249.2481, 178.1666
249.7302, 189.1225
250.2124, 197.1521
250.6945, 204.3626
251.1766, 213.4238
251.6587, 225.5866
252.1408, 237.2306
252.6229, 247.3463
253.1051, 255.8719
253.5872, 265.0793
254.0693, 275.3615
254.5514, 286.0442
255.0335, 296.5016
255.5156, 306.6161
255.9978, 316.5305
256.4799, 326.0323
256.9620, 335.1557
257.4441, 345.2131
257.9262, 356.4252
258.4083, 368.2213
258.8904, 379.9451
259.3726, 391.5797
259.8547, 403.3827
260.3368, 415.4965
260.8189, 427.9116
261.3010, 439.4083
261.7831, 449.6860
262.2653, 459.5004
262.7474, 469.0848
263.2295, 478.0395
263.7116, 488.2990
264.1937, 500.9327
264.6758, 515.1951
265.1580, 527.1065
265.6401, 535.5047
266.1222, 543.6455
266.6043, 554.0197
267.0864, 567.6674
267.5685, 580.0963
268.0507, 590.5949
268.5328, 599.7094
269.0149, 609.8424
269.4970, 621.8110
269.9791, 633.1202
270.4612, 642.2193
270.9434, 648.4847
271.4255, 655.2167
271.9076, 662.5300
272.3897, 670.5399
272.8718, 679.9377
273.3539, 691.2052
273.8361, 702.1993
274.3182, 711.8616
274.8003, 720.0922
275.2824, 727.2089
275.7645, 732.7704
276.2466, 737.6357
276.7288, 743.7637
277.2109, 751.4792
277.6930, 758.7173
278.1751, 764.2926
278.6572, 768.1614
279.1393, 772.1164
279.6215, 775.9056
280.1036, 778.8350
280.5857, 779.7855
281.0678, 778.5162
281.5499, 776.7639
282.0320, 775.7009
282.5142, 775.1749
282.9963, 771.6680
283.4784, 764.8707
283.9605, 757.0671
284.4426, 751.5909
284.9247, 748.2202
285.4069, 743.1285
285.8890, 734.6787
286.3711, 723.7072
286.8532, 713.3916
287.3353, 703.8818
287.8174, 693.9142
288.2996, 682.5061
288.7817, 669.6337
289.2638, 655.1980
289.7459, 638.6586
290.2280, 620.7909
290.7101, 603.2041
291.1923, 585.8479
291.6744, 568.5150
292.1565, 550.8127
292.6386, 532.7615
293.1207, 514.6570
293.6028, 496.6381
294.0850, 478.9987
294.5671, 461.6612
295.0492, 444.6131
295.5313, 427.4435
296.0134, 410.4831
296.4955, 393.4544
296.9777, 376.7128
297.4598, 360.9887
297.9419, 345.9667
298.4240, 331.2970
298.9061, 317.1128
299.3882, 303.9008
299.8704, 292.5522
300.3525, 282.4415
300.8346, 272.2777
301.3167, 261.8023
301.7988, 251.0015
302.2809, 239.2338
302.7631, 227.0720
303.2452, 215.4771
303.7273, 204.9419
304.2094, 195.4304
304.6915, 187.1995
305.1736, 180.2402
305.6558, 173.8404
306.1379, 167.8279
306.6200, 161.8791
307.1021, 155.4460
307.5842, 147.0073
308.0663, 138.5837
308.5485, 132.2791
309.0306, 128.0747
309.5127, 123.9539
309.9948, 118.1181
310.4769, 111.6434
310.9590, 105.9552
311.4412, 101.9235
311.9233, 98.24849
312.4054, 93.97115
312.8875, 89.17993
313.3696, 84.77432
313.8517, 81.93798
314.3339, 79.37385
314.8160, 75.70743
315.2981, 69.99882
315.7802, 64.75820
316.2623, 61.82393
316.7444, 60.51976
317.2266, 58.92850
317.7087, 54.80764
318.1908, 51.10183
318.6729, 50.12555
319.1550, 53.88920
319.6371, 55.57771
320.1193, 51.39303
320.6014, 44.12658
321.0835, 38.09312
321.5656, 35.00903
322.0477, 32.98447
322.5298, 31.44725
323.0120, 30.48122
323.4941, 29.12277
323.9762, 26.61452
324.4583, 23.81826
324.9404, 21.67235
325.4225, 20.70146
325.9047, 20.00664
326.3868, 19.51926
326.8689, 19.25218
327.3510, 18.91824
327.8331, 18.36571
328.3152, 17.85741
328.7974, 17.57913
329.2795, 18.11212
329.7616, 18.20201
330.2437, 17.47914
330.7258, 16.13837
331.2079, 15.25631
331.6901, 14.94945
332.1722, 14.96120
332.6543, 15.13726
333.1364, 15.22965
333.6185, 15.96255
334.1006, 17.86225
334.5828, 20.22430
335.0649, 21.34681
335.5470, 20.83353
336.0291, 19.74543
336.5112, 18.29037
336.9933, 16.23590
337.4755, 15.06951
337.9576, 15.14847
338.4397, 15.73959
338.9218, 15.87675
339.4039, 15.50610
339.8860, 14.87197
340.3681, 13.87486
340.8503, 12.58310
341.3324, 12.21218
341.8145, 13.14201
342.2966, 13.93268
342.7787, 12.97263
343.2608, 10.17193
343.7430, 7.812570
344.2251, 6.515871
344.7072, 5.837926
345.1893, 4.292095
345.6714, 1.760302
346.1535, 0.3517880
346.6357, 0.7100480
347.1178, 0.3694540
347.5999, 0.9742580
348.0820, 0.8549400
348.5641, 0.2818120
349.0462, 0.5704820
349.5284, 1.630024
350.0105, 2.369422
350.4926, 2.044779
350.9747, 1.270558
351.4568, 1.748726
351.9389, 3.693568
352.4211, 4.629758
352.9032, 4.570288
353.3853, 2.123695
353.8674, 0.8255470
354.3495, 2.709952
354.8316, 3.366708
355.3138, 1.512408
355.7959, 0.8988350
356.2780, 0.7217290
356.7601, 1.012015
357.2422, 1.225128
357.7243, 0.4684010
358.2065, 2.024902
358.6886, 0.4168270
359.1707, 0.6873000
359.6528, 0.2989270
360.1349, 2.176489
360.6170, 1.014671
361.0992, 1.246365
361.5813, 1.579534
362.0634, 1.005991
362.5455, 0.6623000
363.0276, 0.3651820
363.5097, 4.8974998E-02
363.9919, 0.3825320
364.4740, 1.436192
364.9561, 2.198725
365.4382, 2.145473
365.9203, 1.168752
366.4024, 0.4785150
366.8846, 0.4207590
367.3667, 0.6738090
367.8488, 0.9786090
368.3309, 1.411124
368.8130, 1.766763
369.2951, 1.426750
369.7773, 1.284737
370.2594, 0.3904800
370.7415, 2.410057
371.2236, 4.344852
371.7057, 4.392241
372.1878, 1.138158
372.6700, 1.014295
373.1521, 0.3533050
373.6342, 0.2605890
374.1163, 0.3168980
374.5984, 0.8365040
375.0805, 0.2992510
375.5627, 0.3622730
376.0448, 0.2659060
376.5269, 1.330648
377.0090, 0.2848420
377.4911, 2.845751
377.9732, 4.247842
378.4554, 4.372250
378.9375, 4.668052
379.4196, 5.329907
379.9017, 6.468657
380.3838, 7.886997
380.8659, 9.653690
381.3481, 11.39434
381.8302, 12.81171
382.3123, 14.06110
382.7944, 15.82229
383.2765, 18.32323
383.7586, 21.06452
384.2408, 23.42517
384.7229, 25.40776
385.2050, 27.15243
385.6871, 28.23740
386.1692, 29.21972
386.6513, 31.50749
387.1335, 35.24294
387.6156, 39.20340
388.0977, 41.93634
388.5798, 44.03694
389.0619, 46.41297
389.5440, 49.17664
390.0262, 52.13263
390.5083, 54.99164
390.9904, 57.98632
391.4725, 61.65271
391.9546, 67.15272
392.4367, 72.93491
392.9189, 77.58660
393.4010, 80.63779
393.8831, 82.92798
394.3652, 84.20662
394.8473, 85.09154
395.3294, 86.58932
395.8116, 89.43310
396.2937, 92.64165
396.7758, 95.79342
397.2579, 98.81660
397.7400, 101.7535
398.2221, 105.1887
398.7043, 108.1731
399.1864, 109.9188
399.6685, 108.4728
400.1506, 107.9760
400.6327, 109.3745
401.1148, 112.1870
401.5970, 114.2114
402.0791, 115.2634
402.5612, 115.7035
403.0433, 115.5060
403.5254, 114.0789
404.0075, 113.8171
404.4897, 115.5946
404.9718, 117.9164
405.4539, 118.1069
405.9360, 115.3199
406.4181, 113.1404
406.9002, 112.8474
407.3824, 114.1146
407.8645, 114.3811
408.3466, 113.6470
408.8287, 112.3375
409.3108, 110.7127
409.7929, 108.6128
410.2751, 105.6448
410.7572, 101.6798
411.2393, 97.40451
411.7214, 93.89472
412.2035, 90.75220
412.6856, 86.96972
413.1678, 81.37546
413.6499, 74.98236
414.1320, 70.17034
414.6141, 67.16996
415.0962, 64.43226
415.5783, 60.34523
416.0605, 55.25349
416.5426, 50.36228
417.0247, 46.10109
417.5068, 42.50208
417.9889, 39.52847
418.4710, 36.94964
418.9532, 34.10559
419.4353, 30.15792
419.9174, 26.26752
420.3995, 23.40333
420.8816, 22.12967
421.3637, 20.72904
421.8459, 18.09253
422.3280, 14.92147
422.8101, 12.36547
423.2922, 11.70275
423.7743, 10.87530
424.2564, 8.989878
424.7386, 5.885836
425.2207, 3.145290
425.7028, 1.131822
426.1849, 0.2307460
426.6670, 1.073731
427.1491, 1.818478
427.6313, 2.386206
428.1134, 0.6220420
428.5955, 2.187347
429.0776, 4.192129
429.5597, 3.378331
430.0418, 2.596601
430.5240, 3.421209
431.0061, 6.403556
431.4882, 6.729374
431.9703, 3.526228
432.4524, 0.3250020
432.9345, 1.295166
433.4167, 0.5893590
433.8988, 2.000993
434.3809, 2.224951
434.8630, 1.553860
435.3451, 0.3432610
435.8272, 1.429675
436.3094, 1.264186
436.7915, 1.028356
437.2736, 3.560917
437.7557, 1.729941
438.2378, 1.326624
438.7199, 1.076846
439.2020, 0.2652040
439.6841, 0.7218190
440.1663, 1.136472
440.6484, 1.925823
441.1305, 2.785810
441.6126, 3.662252
442.0947, 4.469226
442.5768, 4.630579
443.0590, 3.467742
443.5411, 1.752812
444.0232, 8.8367999E-02
444.5053, 1.305125
444.9874, 2.908596
445.4695, 0.5841060
445.9517, 2.190613
446.4338, 3.698929
446.9159, 2.306384
447.3980, 0.9684210
447.8801, 0.8219110
448.3622, 2.003011
448.8444, 2.054327
449.3265, 7.7430001E-03
449.8086, 2.346148
450.2907, 3.188907
450.7728, 2.769879
451.2549, 2.744871
451.7371, 3.274491
452.2192, 3.419128
452.7013, 3.081231
453.1834, 2.956102
453.6655, 3.596579
454.1476, 2.554317
454.6298, 0.1343730
455.1119, 2.735311
455.5940, 5.137875
456.0761, 7.840281
456.5582, 11.15343
457.0403, 15.10154
457.5225, 19.89543
458.0046, 25.61838
458.4867, 31.86744
458.9688, 37.90158
459.4509, 43.83612
459.9330, 49.87611
460.4152, 56.01760
460.8973, 62.50467
461.3794, 69.60671
461.8615, 77.45168
462.3436, 85.53884
462.8257, 93.74018
463.3079, 102.0456
463.7900, 110.4163
464.2721, 118.3402
464.7542, 127.0998
465.2363, 137.6454
465.7184, 149.4873
466.2006, 161.2155
466.6827, 171.8077
467.1648, 182.8307
467.6469, 194.8768
468.1290, 208.1814
468.6111, 221.6699
469.0933, 234.9095
469.5754, 248.7059
470.0575, 264.1660
470.5396, 282.5963
471.0217, 299.8997
471.5038, 315.0978
471.9860, 329.0937
472.4681, 345.3849
472.9502, 364.5121
473.4323, 384.1971
473.9144, 403.1068
474.3965, 421.3512
474.8787, 440.2376
475.3608, 459.8633
475.8429, 479.2941
476.3250, 496.4786
476.8071, 512.0164
477.2892, 529.2823
477.7714, 549.7496
478.2535, 571.0948
478.7356, 590.6296
479.2177, 608.3106
479.6998, 623.4891
480.1819, 634.7585
480.6641, 644.4116
481.1462, 654.6266
481.6283, 665.6286
482.1104, 675.2169
482.5925, 681.7576
483.0746, 686.3846
483.5568, 690.2455
484.0389, 694.2547
484.5210, 696.9273
485.0031, 697.5918
485.4852, 696.3102
485.9673, 693.8665
486.4495, 689.2053
486.9316, 684.6908
487.4137, 681.3635
487.8958, 679.5037
488.3779, 677.0076
488.8600, 672.6344
489.3422, 668.7489
489.8243, 667.5494
490.3064, 669.3893
490.7885, 672.0882
491.2706, 675.1896
491.7527, 679.2707
492.2349, 686.5048
492.7170, 696.9873
493.1991, 709.1680
493.6812, 721.4147
494.1633, 734.4396
494.6454, 751.9342
495.1276, 773.7408
495.6097, 798.0361
496.0918, 822.1271
496.5739, 847.3985
497.0560, 875.4032
497.5381, 906.8627
498.0203, 941.1963
498.5024, 979.7106
498.9845, 1020.872
499.4666, 1062.310
499.9487, 1101.484
500.4308, 1141.338
500.9130, 1184.149
501.3951, 1229.803
501.8772, 1275.083
502.3593, 1319.685
502.8414, 1362.405
503.3235, 1403.132
503.8057, 1442.631
504.2878, 1478.122
504.7699, 1509.718
505.2520, 1537.495
505.7341, 1561.753
506.2162, 1583.560
506.6984, 1599.369
507.1805, 1607.856
507.6626, 1609.188
508.1447, 1606.447
508.6268, 1599.833
509.1089, 1588.294
509.5911, 1570.740
510.0732, 1547.335
510.5553, 1520.053
511.0374, 1489.102
511.5195, 1454.130
512.0016, 1414.126
512.4838, 1369.619
512.9659, 1323.014
513.4480, 1273.564
513.9301, 1222.908
514.4122, 1172.000
514.8943, 1121.114
515.3765, 1071.340
515.8586, 1024.694
516.3407, 978.2691
516.8228, 929.7720
517.3049, 877.9579
517.7870, 827.7854
518.2692, 781.7029
518.7513, 738.1744
519.2334, 695.9264
519.7155, 653.5919
520.1976, 613.8809
520.6797, 578.4079
521.1619, 545.8120
521.6440, 512.2599
522.1261, 476.3858
522.6082, 442.6654
523.0903, 413.1081
523.5724, 387.7928
524.0546, 362.4722
524.5367, 337.0882
525.0188, 312.4680
525.5009, 289.0224
525.9830, 266.6800
526.4651, 245.8001
526.9473, 226.1922
527.4294, 207.7654
527.9115, 190.9974
528.3936, 175.6307
528.8757, 160.6701
529.3578, 145.4639
529.8400, 130.4559
530.3221, 115.9016
530.8042, 102.0474
531.2863, 89.26466
531.7684, 78.39161
532.2505, 68.55363
532.7327, 59.69970
533.2148, 51.96468
533.6969, 44.25536
534.1790, 36.05260
534.6611, 27.91096
535.1432, 20.56838
535.6254, 13.62380
536.1075, 8.064936
536.5896, 4.584627
537.0717, 2.541890
537.5538, 0.2417540
538.0359, 4.430917
538.5181, 5.352721
539.0002, 3.466870
539.4823, 3.252793
539.9644, 2.917238
540.4465, 2.379251
540.9286, 2.259153
541.4108, 3.225025
541.8929, 5.102981
542.3750, 5.662215
542.8571, 3.781795
543.3392, 1.410334
543.8214, 2.556040
544.3035, 7.662037
544.7856, 13.27260
545.2677, 20.03266
545.7498, 26.53146
546.2319, 30.97530
546.7141, 33.88009
547.1962, 37.62427
547.6783, 43.55784
548.1604, 50.36459
548.6425, 57.60500
549.1246, 65.45745
549.6068, 72.88589
550.0889, 78.70900
550.5710, 84.72680
551.0531, 93.09391
551.5352, 105.9539
552.0173, 116.4964
552.4995, 122.9810
552.9816, 127.2295
553.4637, 133.8465
553.9458, 143.0560
554.4279, 152.4436
554.9100, 160.7578
555.3922, 168.2928
555.8743, 175.8639
556.3564, 183.1311
556.8385, 190.6617
557.3206, 199.5922
557.8027, 208.7378
558.2849, 216.2448
558.7670, 221.4544
559.2491, 225.8150
559.7312, 230.0571
560.2133, 234.1065
560.6954, 237.7919
561.1776, 241.3672
561.6597, 243.8910
562.1418, 245.5257
562.6239, 246.0914
563.1060, 244.5156
563.5881, 239.3374
564.0703, 233.2635
564.5524, 227.0957
565.0345, 220.9879
565.5166, 213.6408
565.9987, 204.5633
566.4808, 195.0117
566.9630, 185.8309
567.4451, 177.1253
567.9272, 168.1327
568.4093, 158.5537
568.8914, 149.1431
569.3735, 140.7858
569.8557, 133.4620
570.3378, 126.7084
570.8199, 121.2161
571.3020, 115.4117
571.7841, 106.4794
572.2662, 95.31155
572.7484, 85.25620
573.2305, 78.79528
573.7126, 73.47397
574.1947, 67.60211
574.6768, 61.07844
575.1589, 54.31937
575.6411, 46.27786
576.1232, 38.92887
576.6053, 33.87799
577.0874, 33.31369
577.5695, 31.57979
578.0516, 27.95511
578.5338, 23.62967
579.0159, 20.28781
579.4980, 18.20124
579.9801, 16.47577
580.4622, 15.10440
580.9443, 13.84058
581.4265, 11.97382
581.9086, 9.519469
582.3907, 6.886604
582.8728, 3.679794
583.3549, 0.6069240
583.8370, 0.4254390
584.3192, 0.5653060
584.8013, 1.223082
585.2834, 1.107828
585.7655, 1.590617
586.2476, 3.362910
586.7297, 2.648335
587.2118, 1.589951
587.6939, 0.1918410
588.1760, 0.7120680
588.6581, 5.2668002E-02
589.1403, 4.465406
589.6224, 0.7567080
590.1045, 0.7254460
590.5866, 0.4652580
591.0687, 7.5011998E-02
591.5508, 1.172415
592.0330, 1.885965
592.5151, 1.815715
592.9972, 1.018139
593.4793, 3.9220001E-03
593.9614, 7.4654996E-02
594.4435, 1.308530
594.9257, 2.086333
595.4078, 2.453397
595.8899, 2.337258
596.3720, 1.822972
596.8541, 1.476132
597.3362, 1.686978
597.8184, 2.216666
598.3005, 2.744744
598.7826, 3.531629
599.2647, 3.825054
599.7468, 3.128206
600.2289, 1.652236
600.7111, 0.1133630
601.1932, 2.015167
601.6753, 0.4658070
602.1574, 0.1090690
602.6395, 0.7962520
603.1216, 1.675823
603.6038, 0.1689920
604.0859, 1.078510
604.5680, 0.6760270
605.0501, 1.574041
605.5322, 0.9853090
606.0143, 0.7779450
606.4965, 0.8006280
606.9786, 0.1215650
607.4607, 0.7178240
607.9428, 0.8213820
608.4249, 0.5923670
608.9070, 0.2696890
609.3892, 0.2895560
609.8713, 0.2768180
610.3534, 0.4573940
610.8355, 0.8107780
611.3176, 6.5747000E-02
611.7997, 0.8123130
612.2819, 0.1220960
612.7640, 1.175179
613.2461, 0.5640420
613.7282, 0.5211660
614.2103, 0.3184320
614.6924, 0.2565360
615.1746, 1.232979
615.6567, 0.2447160
616.1388, 0.3659270
616.6209, 3.1525999E-02
617.1030, 1.289963
617.5851, 2.119716
618.0673, 0.6682870
618.5494, 0.1924330
619.0315, 0.7823630
619.5136, 4.508886
619.9957, 6.698209
620.4778, 5.950419
620.9600, 4.472662
621.4421, 4.362578
621.9242, 5.064130
622.4063, 5.436436
622.8884, 4.192497
623.3705, 3.341953
623.8527, 3.868636
624.3348, 5.593614
624.8169, 7.226241
625.2990, 8.616119
625.7811, 9.864065
626.2632, 11.07420
626.7454, 12.28716
627.2275, 12.72853
627.7096, 12.20226
628.1917, 11.43271
628.6738, 10.90655
629.1559, 10.64176
629.6381, 10.68456
630.1202, 11.04560
630.6023, 11.81412
631.0844, 13.70517
631.5665, 16.03677
632.0486, 17.31903
632.5308, 16.77192
633.0129, 15.65279
633.4950, 14.61334
633.9771, 13.64248
634.4592, 12.70017
634.9413, 11.08767
635.4235, 10.18962
635.9056, 11.15397
636.3877, 13.49892
636.8698, 13.97031
637.3519, 11.15175
637.8340, 8.699379
638.3162, 8.231607
638.7983, 9.696180
639.2804, 10.90719
639.7625, 11.88087
640.2446, 12.51421
640.7267, 12.66642
641.2089, 12.39358
641.6910, 11.57975
642.1731, 10.22490
642.6552, 9.457142
643.1373, 11.31373
643.6194, 13.98691
644.1016, 14.83619
644.5837, 12.43403
645.0658, 9.823831
645.5479, 8.021798
646.0300, 6.842664
646.5121, 6.109821
646.9943, 5.887770
647.4764, 5.701670
647.9585, 5.267970
648.4406, 4.786978
648.9227, 4.760115
649.4048, 5.366142
649.8870, 5.723215
650.3691, 5.294137
650.8512, 4.338522
651.3333, 4.223736
651.8154, 4.963600
652.2975, 5.529157
652.7797, 4.784437
653.2618, 3.577193
653.7439, 3.422894
654.2260, 4.507325
654.7081, 5.085834
655.1902, 3.431710
655.6724, 1.136957
656.1545, 0.3396870
656.6366, 0.2345960
657.1187, 0.1763190
657.6008, 0.8772610
658.0829, 2.768713
658.5651, 2.653647
659.0472, 0.1250470
659.5293, 1.342536
660.0114, 1.514468
660.4935, 7.4368000E-02
660.9756, 0.6203180
661.4578, 2.0349999E-03
661.9399, 1.019105
662.4220, 1.625385
662.9041, 0.6382780
663.3862, 1.434774
663.8683, 1.019243
664.3505, 0.4990180
664.8326, 0.7429240
665.3147, 0.6941020
665.7968, 0.6361920
666.2789, 0.3900460
666.7610, 0.3801140
667.2432, 0.1514930
667.7253, 0.4373330
668.2074, 0.2134760
668.6895, 0.7887740
669.1716, 0.6995550
669.6537, 2.737777
670.1359, 5.232799
670.6180, 8.151534
671.1001, 11.14023
671.5822, 12.31611
672.0643, 11.13601
672.5464, 9.541085
673.0286, 9.486548
673.5107, 10.20472
673.9928, 10.75726
674.4749, 10.60190
674.9570, 11.01305
675.4391, 13.29017
675.9213, 16.12699
676.4034, 17.61567
676.8855, 15.75811
677.3676, 14.73815
677.8497, 15.70430
678.3318, 17.94670
678.8140, 19.78533
679.2961, 21.38657
679.7782, 22.28482
680.2603, 22.03253
680.7424, 20.95203
681.2245, 20.75439
681.7067, 21.50063
682.1888, 22.65548
682.6709, 24.37255
683.1530, 26.06104
683.6351, 26.56386
684.1172, 25.88785
684.5994, 25.22381
685.0815, 25.11655
685.5636, 25.43403
686.0457, 26.29316
686.5278, 28.02575
687.0099, 28.98336
687.4921, 27.55617
687.9742, 26.20229
688.4563, 26.77550
688.9384, 30.03885
689.4205, 32.97858
689.9026, 35.68819
690.3848, 37.64624
690.8669, 37.76723
691.3490, 36.27946
691.8311, 35.11559
692.3132, 34.72260
692.7953, 34.71811
693.2775, 34.95425
693.7596, 35.23548
694.2417, 35.15304
694.7238, 34.10775
695.2059, 33.05732
695.6880, 32.45498
696.1702, 32.19881
696.6523, 31.96900
697.1344, 31.80218
697.6165, 31.57690
698.0986, 31.39887
698.5807, 31.16817
699.0629, 30.16623
699.5450, 28.21164
700.0271, 26.31324
700.5092, 24.93297
700.9913, 24.01635
701.4734, 23.45320
701.9556, 23.20377
702.4377, 22.77435
702.9198, 21.76317
703.4019, 20.43216
703.8840, 18.96532
704.3661, 17.37273
704.8483, 15.97237
705.3304, 14.85230
705.8125, 13.98691
706.2946, 13.43133
706.7767, 13.40357
707.2589, 13.09842
707.7410, 12.58484
708.2231, 11.68563
708.7052, 9.989974
709.1873, 7.469496
709.6694, 5.591988
710.1516, 4.522697
710.6337, 4.004522
711.1158, 3.996336
711.5979, 4.273329
712.0800, 4.306639
712.5621, 3.841425
713.0443, 3.336472
713.5264, 3.186787
714.0085, 3.086185
714.4906, 2.772055
714.9727, 1.325444
715.4548, 0.8251410
715.9370, 2.317328
716.4191, 4.590576
716.9012, 4.708682
717.3833, 1.952839
717.8654, 0.1837110
718.3475, 0.4900780
718.8297, 0.2913530
719.3118, 0.4377460
719.7939, 1.7289000E-02
720.2760, 0.4303800
720.7581, 0.1708550
721.2402, 0.1281380
721.7224, 0.1012890
722.2045, 0.7444630
722.6866, 1.429042
723.1687, 1.179376
723.6508, 0.6840060
724.1329, 1.428318
724.6151, 0.4946490
725.0972, 0.4204330
725.5793, 0.4321270
726.0614, 1.053632
726.5435, 4.5260001E-02
727.0256, 2.534889
727.5078, 2.728777
727.9899, 0.3530760
728.4720, 1.894585
728.9541, 1.601539
729.4362, 0.2144620
729.9183, 1.933009
730.4005, 3.397774
730.8826, 4.374283
731.3647, 4.193236
731.8468, 3.791718
732.3289, 4.073838
732.8110, 5.850765
733.2932, 6.377571
733.7753, 3.943005
734.2574, 1.677040
734.7395, 2.655550
735.2216, 7.679516
735.7037, 11.19059
736.1859, 12.78286
736.6680, 13.07039
737.1501, 11.81950
737.6322, 9.851884
738.1143, 10.04597
738.5964, 13.65900
739.0786, 17.62375
739.5607, 19.25254
740.0428, 19.70560
740.5249, 20.56315
741.0070, 23.06141
741.4891, 25.03802
741.9713, 25.41094
742.4534, 25.30392
742.9355, 26.56021
743.4176, 29.94572
743.8997, 32.12658
744.3818, 32.08411
744.8640, 31.01671
745.3461, 31.38809
745.8282, 33.01638
746.3103, 34.72922
746.7924, 35.96386
747.2745, 37.20821
747.7567, 39.02307
748.2388, 41.25355
748.7209, 43.46943
749.2030, 46.25499
749.6851, 48.26216
750.1672, 48.31495
750.6494, 47.11756
751.1315, 47.40661
751.6136, 50.02064
752.0957, 52.24426
752.5778, 53.17988
753.0599, 53.09092
753.5421, 52.59514
754.0242, 51.77685
754.5063, 51.89984
754.9884, 53.81638
755.4705, 57.00279
755.9526, 61.67057
756.4348, 67.35443
756.9169, 71.50768
757.3990, 71.22701
757.8811, 70.51372
758.3632, 71.25312
758.8453, 73.61362
759.3275, 76.33109
759.8096, 79.51370
760.2917, 82.41586
760.7738, 84.74970
761.2559, 86.55405
761.7380, 88.08388
762.2202, 89.26730
762.7023, 91.10737
763.1844, 94.63734
763.6665, 99.13701
764.1486, 104.0408
764.6307, 109.1584
765.1129, 113.0203
765.5950, 114.3476
766.0771, 114.6116
766.5592, 114.6708
767.0413, 114.5584
767.5234, 114.1356
768.0056, 112.8726
768.4877, 112.2462
768.9698, 113.3000
769.4519, 116.0272
769.9340, 119.4421
770.4161, 123.7311
770.8983, 126.9591
771.3804, 126.5522
771.8625, 124.3534
772.3446, 123.3152
772.8267, 123.9690
773.3088, 124.5404
773.7910, 123.5484
774.2731, 122.4725
774.7552, 122.6788
775.2373, 125.0972
775.7194, 126.5911
776.2015, 127.0800
776.6837, 126.7617
777.1658, 125.1961
777.6479, 122.4418
778.1300, 121.2616
778.6121, 122.0027
779.0942, 123.4175
779.5764, 125.2856
780.0585, 126.5727
780.5406, 125.5768
781.0227, 121.4845
781.5048, 117.3029
781.9869, 113.8910
782.4691, 111.3568
782.9512, 109.8478
783.4332, 109.6894
783.9153, 109.8192
784.3975, 110.6414
784.8796, 111.3077
785.3617, 110.5737
785.8438, 108.7680
786.3259, 107.0469
786.8080, 105.6460
787.2902, 104.8141
787.7723, 105.7372
788.2544, 106.8330
788.7365, 105.4589
789.2186, 99.68642
789.7007, 95.02827
790.1829, 94.62295
790.6650, 95.73559
791.1471, 95.53487
791.6292, 93.10072
792.1113, 90.85388
792.5934, 88.83094
793.0756, 86.88634
793.5577, 85.11774
794.0398, 83.53695
794.5219, 81.93474
795.0040, 80.28016
795.4861, 78.69508
795.9683, 77.31978
796.4504, 75.95212
796.9325, 74.44507
797.4146, 73.20278
797.8967, 71.45837
798.3788, 68.32338
798.8610, 65.08734
799.3431, 63.23679
799.8252, 63.51291
800.3073, 61.90813
800.7894, 57.68643
801.2715, 52.79243
801.7537, 49.91071
802.2358, 48.48803
802.7179, 46.47774
803.2000, 43.33226
803.6821, 40.07487
804.1642, 37.74208
804.6464, 35.62854
805.1285, 32.80104
805.6106, 27.71429
806.0927, 24.31186
806.5748, 24.22792
807.0569, 24.79596
807.5391, 22.74986
808.0212, 17.52942
808.5033, 14.53663
808.9854, 14.80589
809.4675, 15.77032
809.9496, 13.89594
810.4318, 10.41149
810.9139, 8.156544
811.3960, 7.796102
811.8781, 7.495960
812.3602, 5.809028
812.8423, 3.589182
813.3245, 1.682475
813.8066, 5.9294999E-02
814.2887, 0.7731550
814.7708, 0.1819870
815.2529, 1.287525
815.7350, 0.4312660
816.2172, 0.2950460
816.6993, 1.611123
817.1814, 1.016988
817.6635, 1.9600000E-03
818.1456, 3.2880999E-02
818.6277, 0.5985620
819.1099, 0.9078350
819.5920, 0.5774470
820.0741, 0.8231770
820.5562, 0.1594030
821.0383, 0.4962690
821.5204, 1.571184
822.0026, 1.152253
822.4847, 0.7411790
822.9668, 0.4740660
823.4489, 8.6239995E-03
823.9310, 0.1597370
824.4131, 2.2844000E-02
824.8953, 0.2797140
825.3774, 0.1310840
825.8595, 0.5197000
826.3416, 4.9780998E-02
826.8237, 0.2526110
827.3058, 0.2273420
827.7880, 0.7082160
828.2701, 0.2285640
828.7522, 0.4092080
829.2343, 0.5548380
829.7164, 0.3939480
830.1985, 0.4883100
830.6807, 0.2777210
831.1628, 2.7601000E-02
831.6449, 0.1554910
832.1270, 0.2258810
832.6091, 0.4276750
833.0912, 0.3760690
833.5734, 0.4770810
834.0555, 0.7174510
834.5376, 0.6219570
835.0197, 0.5309350
835.5018, 0.3022780
835.9839, 0.1306230
836.4661, 2.2406001E-02
836.9482, 0.5451190
837.4303, 0.3844130
837.9124, 1.171632
838.3945, 1.638842
838.8766, 0.3633330
839.3588, 0.3589940
839.8409, 2.160331
840.3230, 2.543269
840.8051, 1.780402
841.2872, 8.9258000E-02
841.7693, 0.3838450
842.2515, 0.9897240
842.7336, 1.975403
843.2157, 6.515566
843.6978, 7.100197
844.1799, 4.098770
844.6620, 2.291713
845.1442, 1.688662
845.6263, 2.061583
846.1084, 4.510205
846.5905, 7.203954
847.0726, 6.775033
847.5547, 3.758471
848.0369, 0.8028220
848.5190, 5.6446001E-02
849.0011, 1.311722
849.4832, 0.8045010
849.9653, 0.3102190
850.4474, 1.582492
850.9296, 3.567339
851.4117, 4.556068
851.8938, 3.942964
852.3759, 2.306392
852.8580, 0.7503520
853.3401, 0.5664620
853.8223, 0.1876980
854.3044, 1.091449
854.7865, 3.009899
855.2686, 2.432940
855.7507, 0.3091780
856.2328, 3.5470000E-03
856.7150, 0.1612000
857.1971, 0.2114680
857.6792, 0.8384030
858.1613, 2.108552
858.6434, 3.180758
859.1255, 4.041106
859.6077, 4.814223
860.0898, 5.510854
860.5719, 6.073254
861.0540, 6.198567
861.5361, 6.170725
862.0182, 6.509869
862.5004, 7.859914
862.9825, 8.822916
863.4646, 8.887029
863.9467, 8.452398
864.4288, 7.823583
864.9109, 6.885112
865.3931, 6.466443
865.8752, 6.850786
866.3573, 7.095993
866.8394, 5.874188
867.3215, 3.731388
867.8036, 1.576771
868.2858, 0.2400900
868.7679, 0.8344250
869.2500, 0.1944650
869.7321, 1.452731
870.2142, 4.142010
870.6964, 8.148082
871.1785, 9.882071
871.6606, 8.680509
872.1427, 6.715387
872.6248, 5.816870
873.1069, 5.703409
873.5891, 5.355472
874.0712, 4.658225
874.5533, 4.058310
875.0354, 4.276494
875.5175, 4.655082
875.9996, 4.353633
876.4818, 3.226948
876.9639, 3.096028
877.4460, 5.028889
877.9281, 6.514673
878.4102, 6.379764
878.8923, 4.869918
879.3745, 3.622364
879.8566, 2.735732
880.3387, 2.388858
880.8208, 3.264480
881.3029, 4.304682
881.7850, 4.503376
882.2672, 4.042023
882.7493, 3.207002
883.2314, 0.5317330
883.7135, 0.2922070
884.1956, 0.9482480
884.6777, 4.280093
885.1599, 5.013862
885.6420, 2.860489
886.1241, 1.342697
886.6062, 1.534904
887.0883, 2.940219
887.5704, 5.809868
888.0526, 9.062544
888.5347, 10.63295
889.0168, 7.826377
889.4989, 6.295132
889.9810, 9.356948
890.4631, 13.62343
890.9453, 15.22437
891.4274, 13.40932
891.9095, 12.44578
892.3916, 12.75157
892.8737, 13.35192
893.3558, 12.93275
893.8380, 12.08632
894.3201, 11.83891
894.8022, 12.32031
895.2843, 12.96424
895.7664, 13.58730
896.2485, 14.03412
896.7307, 14.39911
897.2128, 14.66153
897.6949, 15.78685
898.1770, 18.16791
898.6591, 20.04928
899.1412, 19.75238
899.6234, 18.11988
900.1055, 17.26475
900.5876, 17.64701
901.0697, 18.46468
901.5518, 19.88449
902.0339, 21.03293
902.5161, 20.96759
902.9982, 19.93559
903.4803, 20.10524
903.9624, 21.91722
904.4445, 24.03462
904.9266, 26.18598
905.4088, 28.16290
905.8909, 29.35719
906.3730, 29.78486
906.8551, 30.07225
907.3372, 30.55952
907.8193, 30.96439
908.3015, 30.76294
908.7836, 30.44874
909.2657, 31.10066
909.7478, 34.05649
910.2299, 35.50275
910.7120, 34.80691
911.1942, 32.97523
911.6763, 31.17439
912.1584, 29.77712
912.6405, 30.14206
913.1226, 32.64748
913.6047, 34.64852
914.0869, 33.74891
914.5690, 31.78386
915.0511, 30.37267
915.5332, 30.00145
916.0153, 29.53717
916.4974, 28.71955
916.9796, 28.10378
917.4617, 28.05911
917.9438, 28.52147
918.4259, 29.20401
918.9080, 30.05666
919.3901, 30.61911
919.8723, 30.76432
920.3544, 30.36285
920.8365, 28.61494
921.3186, 25.97164
921.8007, 25.04122
922.2828, 27.94517
922.7650, 29.57837
923.2471, 28.35939
923.7292, 25.45260
924.2113, 23.72746
924.6934, 22.99187
925.1755, 21.88754
925.6577, 19.53664
926.1398, 17.36942
926.6219, 17.35715
927.1040, 18.42936
927.5861, 19.31427
928.0682, 19.22113
928.5504, 19.37211
929.0325, 19.88634
929.5146, 20.25512
929.9967, 19.86690
930.4788, 18.78974
930.9609, 17.41436
931.4431, 15.72689
931.9252, 14.74170
932.4073, 16.41802
932.8894, 18.37032
933.3715, 18.18273
933.8536, 15.41740
934.3358, 13.78174
934.8179, 14.59922
935.3000, 14.88916
935.7821, 13.03336
936.2642, 9.680183
936.7463, 7.606212
937.2285, 6.659814
937.7106, 5.838330
938.1927, 4.839143
938.6748, 3.598191
939.1569, 1.635882
939.6390, 0.6121430
940.1212, 2.058171
940.6033, 1.486372
941.0854, 2.250809
941.5675, 0.3854970
942.0496, 1.078860
942.5317, 1.664280
943.0139, 1.863193
943.4960, 3.9395001E-02
943.9781, 1.557419
944.4602, 2.770367
944.9423, 4.156219
945.4244, 4.625321
945.9066, 2.809342
946.3887, 2.590506
946.8708, 0.6497470
947.3529, 0.8481490
947.8350, 1.407410
948.3171, 0.5881600
948.7993, 1.249664
949.2814, 1.928501
949.7635, 0.2604780
950.2456, 0.5540440
950.7277, 1.100666
951.2098, 2.606224
951.6920, 2.508002
952.1741, 0.9710350
952.6562, 1.217626
953.1383, 2.612558
953.6204, 0.5135040
954.1025, 0.6376040
954.5847, 1.519975
955.0668, 4.0240999E-02
955.5489, 2.652462
956.0310, 3.030742
956.5131, 1.072250
956.9952, 3.628322
957.4774, 0.6746660
957.9595, 6.487624
958.4416, 8.877580
958.9237, 6.885686
959.4058, 5.417589
959.8879, 4.378686
960.3701, 4.354815
960.8522, 7.009413
961.3343, 10.56531
961.8164, 10.62330
962.2985, 7.754588
962.7806, 6.018983
963.2628, 8.265988
963.7449, 10.96964
964.2270, 12.87710
964.7091, 14.14525
965.1912, 15.19527
965.6733, 16.00701
966.1555, 16.74367
966.6376, 17.50109
967.1197, 18.11595
967.6018, 17.83973
968.0839, 17.43951
968.5660, 18.22273
969.0482, 21.10909
969.5303, 23.99169
970.0124, 26.76867
970.4945, 29.18294
970.9766, 31.01027
971.4587, 32.21468
971.9409, 33.31836
972.4230, 34.29852
972.9051, 35.51192
973.3872, 37.05246
973.8693, 39.04329
974.3514, 42.10263
974.8336, 45.89444
975.3157, 48.37160
975.7978, 47.82085
976.2799, 47.96741
976.7620, 49.95560
977.2441, 52.87892
977.7263, 54.29757
978.2084, 54.62046
978.6905, 56.12474
979.1726, 60.13841
979.6547, 63.77935
980.1368, 65.17181
980.6190, 64.91494
981.1010, 63.36525
981.5831, 59.49455
982.0652, 57.73726
982.5474, 58.62760
983.0295, 60.17216
983.5116, 60.84009
983.9937, 60.91608
984.4758, 61.29962
984.9579, 61.91470
985.4401, 62.05501
985.9222, 60.56069
986.4043, 59.25895
986.8864, 59.17910
987.3685, 59.94705
987.8506, 60.70386
988.3328, 61.52528
988.8149, 61.61201
989.2970, 60.54638
989.7791, 59.28862
990.2612, 59.77177
990.7433, 60.75619
991.2255, 59.91835
991.7076, 55.70427
992.1897, 52.74760
992.6718, 52.96538
993.1539, 53.93599
993.6360, 54.47765
994.1182, 54.57315
994.6003, 53.34792
995.0824, 50.79556
995.5645, 47.97351
996.0466, 44.69626
996.5287, 42.12332
997.0109, 41.83383
997.4930, 43.12636
997.9751, 43.60817
998.4572, 42.90899
998.9393, 41.81693
999.4214, 40.36592
999.9036, 38.76897
1000.386, 37.58767
1000.868, 36.73449
1001.350, 35.78564
1001.832, 34.56451
1002.314, 33.24462
1002.796, 32.40987
1003.278, 31.17993
1003.760, 28.62679
1004.243, 24.58516
1004.725, 21.96491
1005.207, 20.70555
1005.689, 20.39902
1006.171, 21.55914
1006.653, 23.01278
1007.135, 22.73340
1007.617, 21.34560
1008.100, 20.19718
1008.582, 20.07205
1009.064, 19.65948
1009.546, 18.76117
1010.028, 17.69019
1010.510, 16.78853
1010.992, 16.01973
1011.474, 14.78138
1011.956, 12.81365
1012.439, 10.86128
1012.921, 10.12560
1013.403, 9.733397
1013.885, 8.931346
1014.367, 7.607859
1014.849, 6.416644
1015.331, 5.629848
1015.813, 5.586723
1016.296, 6.825323
1016.778, 8.618369
1017.260, 9.179129
1017.742, 8.815309
1018.224, 8.407621
1018.706, 7.764235
1019.188, 7.928936
1019.670, 9.632248
1020.152, 12.11668
1020.635, 14.84831
1021.117, 18.07754
1021.599, 19.53159
1022.081, 19.05744
1022.563, 17.99433
1023.045, 17.31965
1023.527, 16.72133
1024.009, 15.67844
1024.492, 14.31585
1024.974, 13.46755
1025.456, 14.27759
1025.938, 14.16783
1026.420, 12.25740
1026.902, 9.658136
1027.384, 8.283479
1027.866, 8.087778
1028.349, 9.290630
1028.831, 12.51679
1029.313, 14.53493
1029.795, 11.73958
1030.277, 8.068364
1030.759, 6.875414
1031.241, 8.397641
1031.723, 10.08832
1032.205, 12.11796
1032.688, 13.33607
1033.170, 12.65239
1033.652, 11.13889
1034.134, 9.709821
1034.616, 8.774859
1035.098, 9.332067
1035.580, 14.30049
1036.062, 17.04218
1036.544, 15.68205
1037.027, 13.11922
1037.509, 13.11655
1037.991, 15.22784
1038.473, 16.38168
1038.955, 16.31036
1039.437, 15.61950
1039.919, 14.32861
1040.401, 12.94402
1040.884, 11.47451
1041.366, 10.12715
1041.848, 10.50590
1042.330, 13.32671
1042.812, 14.61974
1043.294, 12.66169
1043.776, 9.882881
1044.258, 10.20896
1044.740, 12.13113
1045.223, 12.91634
1045.705, 11.36731
1046.187, 10.52633
1046.669, 11.62986
1047.151, 12.58556
1047.633, 11.42719
1048.115, 8.708303
1048.597, 10.07763
1049.079, 15.06638
1049.562, 19.20227
1050.044, 19.54694
1050.526, 18.95153
1051.008, 18.64195
1051.490, 18.48226
1051.972, 18.18206
1052.454, 17.18347
1052.936, 17.94402
1053.419, 21.14780
1053.901, 24.02425
1054.383, 22.65414
1054.865, 19.53706
1055.347, 18.49520
1055.829, 19.93274
1056.311, 20.79191
1056.793, 20.20257
1057.276, 19.03354
1057.758, 17.30002
1058.240, 15.23035
1058.722, 13.21337
1059.204, 11.52938
1059.686, 11.18819
1060.168, 13.10536
1060.650, 14.38567
1061.132, 12.65833
1061.615, 9.801098
1062.097, 7.339347
1062.579, 5.426422
1063.061, 4.428847
1063.543, 4.287090
1064.025, 4.543493
1064.507, 5.740412
1064.989, 6.766374
1065.471, 5.327775
1065.954, 2.494701
1066.436, 0.8986740
1066.918, 2.934276
1067.400, 3.702291
1067.882, 2.356725
1068.364, 0.1911680
1068.846, 1.564322
1069.328, 2.440318
1069.811, 0.9744250
1070.293, 2.623451
1070.775, 6.058430
1071.257, 9.563598
1071.739, 11.43490
1072.221, 10.34669
1072.703, 7.294266
1073.185, 5.291333
1073.667, 4.432505
1074.150, 4.531991
1074.632, 5.632994
1075.114, 7.193277
1075.596, 9.357374
1076.078, 11.20226
1076.560, 11.87453
1077.042, 11.07484
1077.524, 9.954612
1078.006, 8.352578
1078.489, 7.031651
1078.971, 6.247811
1079.453, 6.142456
1079.935, 7.738818
1080.417, 10.20052
1080.899, 11.52030
1081.381, 10.48819
1081.863, 8.633213
1082.345, 5.436111
1082.828, 2.517962
1083.310, 1.630702
1083.792, 2.528865
1084.274, 3.694106
1084.756, 5.036950
1085.238, 6.187504
1085.720, 7.469132
1086.202, 7.934692
1086.685, 6.135917
1087.167, 3.313895
1087.649, 2.446566
1088.131, 3.711600
1088.613, 5.442906
1089.095, 7.534103
1089.577, 9.079909
1090.059, 8.851710
1090.542, 7.758427
1091.024, 6.635853
1091.506, 5.563410
1091.988, 4.666249
1092.470, 3.645265
1092.952, 3.594828
1093.434, 5.223069
1093.916, 7.590036
1094.398, 9.289071
1094.880, 10.23315
1095.363, 10.02845
1095.845, 7.807164
1096.327, 6.503143
1096.809, 7.987076
1097.291, 9.127018
1097.773, 7.577744
1098.255, 3.847281
1098.737, 1.638639
1099.220, 0.9033480
1099.702, 1.289709
1100.184, 3.967154
1100.666, 6.236190
1101.148, 6.980994
1101.630, 6.383418
1102.112, 4.542591
1102.594, 1.191645
1103.077, 1.038320
1103.559, 1.960614
1104.041, 2.061272
1104.523, 0.5256340
1105.005, 0.8129180
1105.487, 0.9915250
1105.969, 8.3154000E-02
1106.451, 1.508159
1106.933, 0.7457950
1107.416, 1.164862
1107.898, 0.6915110
1108.380, 0.5943730
1108.862, 0.6898450
1109.344, 1.737789
1109.826, 0.1225050
1110.308, 0.3103320
1110.790, 0.2649090
1111.272, 0.6983670
1111.755, 1.602095
1112.237, 0.6013380
1112.719, 0.1247630
1113.201, 1.5222000E-02
1113.683, 0.8374240
1114.165, 0.8855330
1114.647, 1.096785
1115.129, 0.7185410
1115.612, 0.1490050
1116.094, 0.3145470
1116.576, 0.5770100
1117.058, 0.6398410
1117.540, 0.3023920
1118.022, 0.1704150
1118.504, 0.3908490
1118.986, 0.9023060
1119.469, 1.018191
1119.951, 0.1055990
1120.433, 7.3324002E-02
1120.915, 0.6382840
1121.397, 0.6114870
1121.879, 0.1786360
1122.361, 0.2408700
1122.843, 0.2404720
1123.325, 0.5735210
1123.807, 0.4030110
1124.290, 1.422764
1124.772, 3.783072
1125.254, 4.521410
1125.736, 2.224067
1126.218, 1.680833
1126.700, 3.938418
1127.182, 6.116695
1127.664, 4.466309
1128.147, 0.9534960
1128.629, 0.2935900
1129.111, 2.9239999E-02
1129.593, 0.2575820
1130.075, 3.9018001E-02
1130.557, 1.201735
1131.039, 2.559666
1131.521, 3.661278
1132.004, 3.963720
1132.486, 3.318797
1132.968, 0.8695280
1133.450, 2.315847
1133.932, 5.953808
1134.414, 4.920734
1134.896, 3.079848
1135.378, 2.260698
1135.860, 2.343381
1136.343, 2.784804
1136.825, 3.531807
1137.307, 3.632020
1137.789, 2.270485
1138.271, 1.538189
1138.753, 2.945602
1139.235, 5.368369
1139.717, 7.823651
1140.199, 10.38312
1140.682, 10.81997
1141.164, 9.157752
1141.646, 7.918927
1142.128, 9.192357
1142.610, 10.56813
1143.092, 9.425032
1143.574, 7.426746
1144.056, 7.249062
1144.539, 9.954715
1145.021, 11.12785
1145.503, 10.48073
1145.985, 9.345814
1146.467, 8.398877
1146.949, 7.880304
1147.431, 7.978694
1147.913, 8.566441
1148.396, 9.583923
1148.878, 11.73912
1149.360, 12.79056
1149.842, 12.34482
1150.324, 11.48170
1150.806, 11.22642
1151.288, 11.22739
1151.770, 11.41434
1152.252, 11.76328
1152.734, 12.00223
1153.217, 11.83332
1153.699, 11.92626
1154.181, 12.52505
1154.663, 13.13528
1155.145, 12.87722
1155.627, 12.21302
1156.109, 12.28768
1156.591, 13.25382
1157.074, 13.74458
1157.556, 12.95822
1158.038, 12.07089
1158.520, 11.43279
1159.002, 10.87599
1159.484, 9.557916
1159.966, 7.990801
1160.448, 8.071122
1160.931, 10.53416
1161.413, 12.51239
1161.895, 12.23885
1162.377, 11.62250
1162.859, 11.66464
1163.341, 12.00150
1163.823, 10.48327
1164.305, 7.643460
1164.787, 6.607622
1165.270, 8.941211
1165.752, 11.10729
1166.234, 11.33779
1166.716, 10.92633
1167.198, 10.61098
1167.680, 10.53925
1168.162, 11.06011
1168.644, 12.09372
1169.126, 12.68067
1169.609, 12.39909
1170.091, 11.58193
1170.573, 8.899226
1171.055, 6.740165
1171.537, 8.105545
1172.019, 13.53681
1172.501, 15.76529
1172.983, 14.86525
1173.466, 13.08798
1173.948, 10.64252
1174.430, 9.016880
1174.912, 10.14195
1175.394, 8.655365
1175.876, 8.739845
1176.358, 9.490402
1176.840, 9.471257
1177.323, 12.58067
1177.805, 14.64797
1178.287, 11.07420
1178.769, 6.561364
1179.251, 5.275829
1179.733, 6.272641
1180.215, 6.252019
1180.697, 4.274133
1181.179, 4.907159
1181.661, 9.082858
1182.144, 13.33334
1182.626, 15.49965
1183.108, 15.42059
1183.590, 11.21465
1184.072, 4.354132
1184.554, 1.823474
1185.036, 5.133706
1185.518, 7.641858
1186.001, 8.502139
1186.483, 7.897683
1186.965, 4.306435
1187.447, 0.8833270
1187.929, 2.471251
1188.411, 8.577038
1188.893, 10.29591
1189.375, 6.011800
1189.858, 1.981891
1190.340, 0.4970930
1190.822, 0.2328400
1191.304, 0.5238370
1191.786, 7.6509997E-02
1192.268, 0.1222360
1192.750, 3.137291
1193.232, 3.925129
1193.714, 1.497688
1194.197, 0.2711250
1194.679, 5.7264999E-02
1195.161, 0.8360120
1195.643, 0.2534770
1196.125, 1.260310
1196.607, 7.0881002E-02
1197.089, 2.603162
1197.571, 4.299588
1198.053, 4.763181
1198.536, 4.562675
1199.018, 3.774392
1199.500, 2.712395
1199.982, 1.664286
1200.464, 0.7813170
1200.946, 0.4398320
1201.428, 1.057320
1201.910, 0.6099810
1202.393, 0.1618230
1202.875, 0.1952750
1203.357, 5.8171999E-02
1203.839, 1.291548
1204.321, 0.9285250
1204.803, 0.5930300
1205.285, 0.6061920
1205.767, 2.850999
1206.250, 4.684937
1206.732, 4.489987
1207.214, 3.385176
1207.696, 1.289820
1208.178, 0.6771790
1208.660, 0.1871540
1209.142, 2.473554
1209.624, 3.455714
1210.106, 1.270601
1210.589, 0.2945690
1211.071, 0.7132750
1211.553, 1.972153
1212.035, 4.793497
1212.517, 7.423531
1212.999, 6.063913
1213.481, 2.440080
1213.963, 0.2324470
1214.445, 1.366210
1214.928, 2.470648
1215.410, 3.742661
1215.892, 4.451543
1216.374, 3.559455
1216.856, 2.083491
1217.338, 1.663918
1217.820, 1.969315
1218.302, 2.126030
1218.785, 0.3120830
1219.267, 2.183383
1219.749, 9.159810
1220.231, 15.31331
1220.713, 15.14777
1221.195, 11.60252
1221.677, 7.698443
1222.159, 4.178453
1222.641, 2.870844
1223.124, 5.583484
1223.606, 6.896674
1224.088, 6.272087
1224.570, 5.463274
1225.052, 6.384581
1225.534, 7.786834
1226.016, 7.688498
1226.498, 6.639252
1226.980, 6.848438
1227.463, 9.519297
1227.945, 10.44459
1228.427, 9.081062
1228.909, 6.918384
1229.391, 5.128094
1229.873, 3.494159
1230.355, 1.651201
1230.837, 0.2315320
1231.320, 0.1963440
1231.802, 8.5387997E-02
1232.284, 0.3650350
1232.766, 9.4746001E-02
1233.248, 2.513214
1233.730, 2.846055
1234.212, 2.326837
1234.694, 2.278756
1235.177, 2.502288
1235.659, 1.988320
1236.141, 0.7175060
1236.623, 0.4580820
1237.105, 0.2486770
1237.587, 1.204483
1238.069, 0.2104020
1238.551, 2.838756
1239.033, 4.938366
1239.516, 4.924967
1239.998, 5.495854
1240.480, 6.690500
1240.962, 7.638472
1241.444, 8.158492
1241.926, 8.520115
1242.408, 8.755455
1242.890, 9.230405
1243.372, 10.45179
1243.855, 11.89435
1244.337, 11.94746
1244.819, 10.53548
1245.301, 9.901341
1245.783, 10.60389
1246.265, 11.02852
1246.747, 9.690336
1247.229, 7.955799
1247.712, 5.984939
1248.194, 4.257737
1248.676, 3.813015
1249.158, 4.270627
1249.640, 4.112769
1250.122, 3.426983
1250.604, 3.101865
1251.086, 4.596626
1251.568, 5.959607
1252.051, 5.951942
1252.533, 5.185953
1253.015, 5.284705
1253.497, 5.871507
1253.979, 5.877114
1254.461, 5.642400
1254.943, 5.105023
1255.425, 4.999818
1255.907, 5.080722
1256.390, 5.175987
1256.872, 5.513758
1257.354, 5.569125
1257.836, 5.467299
1258.318, 6.753123
1258.800, 9.644280
1259.282, 10.87918
1259.764, 7.678470
1260.247, 5.044240
1260.729, 4.079419
1261.211, 4.474225
1261.693, 6.563521
1262.175, 9.456198
1262.657, 10.93249
1263.139, 10.62996
1263.621, 9.029181
1264.104, 4.929243
1264.586, 2.636656
1265.068, 3.756141
1265.550, 5.800378
1266.032, 4.359691
1266.514, 5.747913
1266.996, 6.405734
1267.478, 5.735603
1267.960, 7.337003
1268.443, 5.702228
1268.925, 5.610419
1269.407, 7.981777
1269.889, 10.13739
1270.371, 8.056492
1270.853, 4.027976
1271.335, 1.601300
1271.817, 2.005468
1272.299, 2.143519
1272.782, 1.927894
1273.264, 1.813940
1273.746, 1.948654
1274.228, 1.962801
1274.710, 0.9458530
1275.192, 0.1120650
1275.674, 1.159883
1276.156, 3.363990
1276.639, 3.309244
1277.121, 1.004654
1277.603, 1.078477
1278.085, 0.3151220
1278.567, 0.1024170
1279.049, 2.774544
1279.531, 7.325700
1280.013, 7.698318
1280.495, 5.368576
1280.978, 3.683390
1281.460, 2.633181
1281.942, 2.099434
1282.424, 2.053587
1282.906, 2.761514
1283.388, 6.126771
1283.870, 7.914063
1284.352, 5.895544
1284.834, 2.318901
1285.317, 1.914490
1285.799, 3.580399
1286.281, 4.365669
1286.763, 3.912966
1287.245, 3.583102
1287.727, 4.009498
1288.209, 4.386413
1288.691, 4.483509
1289.173, 4.490041
1289.656, 4.601381
1290.138, 4.852555
1290.620, 5.565386
1291.102, 6.414505
1291.584, 5.940645
1292.066, 5.462515
1292.548, 3.475395
1293.030, 0.6077580
1293.513, 0.5317440
1293.995, 0.4336080
1294.477, 0.6327300
1294.959, 1.612111
1295.441, 5.218176
1295.923, 6.489307
1296.405, 5.119019
1296.887, 4.118446
1297.370, 3.917354
1297.852, 4.364638
1298.334, 6.389736
1298.816, 7.888159
1299.298, 4.243832
1299.780, 4.422298
1300.262, 4.657617
1300.744, 3.755864
1301.226, 4.455154
1301.708, 3.280636
1302.191, 2.600050
1302.673, 2.782839
1303.155, 2.930889
1303.637, 2.026114
1304.119, 0.0000000E+00
##END=



