##NAMES=Anorthite
##RRUFFID=R060275
##IDEAL CHEMISTRY=CaAl_2_Si_2_O_8_
##LOCALITY=Madagascar
##OWNER=RRUFF
##SOURCE=Herb Obodda
##DESCRIPTION=Colorless to light gray fragment
##STATUS=The identification of this mineral has been confirmed by X-ray diffraction and chemical analysis
##URL=rruff.info/R060275
##MEASURED CHEMISTRY=(Na_0.44_K_0.03_Ca_0.53_)_Î£=1_Al_1.53_Si_2.47_O_8_
105.5146, 0.0000000E+00
105.9967, 0.8457030
106.4788, 0.1247560
106.9609, 0.4948730
107.4431, 3.625977
107.9252, 7.907471
108.4073, 11.57178
108.8894, 13.89941
109.3715, 15.34009
109.8536, 16.59180
110.3358, 17.77124
110.8179, 18.37891
111.3000, 17.14526
111.7821, 14.25488
112.2642, 13.29761
112.7463, 18.11963
113.2285, 24.02905
113.7106, 26.53711
114.1927, 24.28540
114.6748, 20.89014
115.1569, 20.34985
115.6390, 23.27759
116.1212, 26.23120
116.6033, 28.02148
117.0854, 28.63696
117.5675, 28.36084
118.0496, 27.72607
118.5317, 26.88672
119.0139, 26.18262
119.4960, 24.26953
119.9781, 23.24146
120.4602, 24.51855
120.9423, 28.14648
121.4244, 34.55908
121.9066, 40.52954
122.3887, 43.67114
122.8708, 42.57446
123.3529, 37.16333
123.8350, 32.33569
124.3171, 28.00562
124.7993, 25.04712
125.2814, 23.20410
125.7635, 21.09570
126.2456, 18.75098
126.7277, 17.42944
127.2098, 17.93457
127.6920, 19.28711
128.1741, 20.83594
128.6562, 22.67407
129.1383, 23.94531
129.6204, 23.29468
130.1025, 20.96313
130.5847, 18.12964
131.0668, 15.10791
131.5489, 11.91846
132.0310, 8.487061
132.5131, 3.974854
132.9952, 0.2250980
133.4774, 1.109131
133.9595, 1.1230000E-02
134.4416, 1.816650
134.9237, 3.285889
135.4058, 4.558105
135.8879, 4.529541
136.3701, 1.155273
136.8522, 2.341064
137.3343, 4.345459
137.8164, 4.423340
138.2985, 2.775879
138.7806, 0.8391110
139.2628, 9.761230
139.7449, 14.19385
140.2270, 10.53662
140.7091, 4.039063
141.1912, 0.9562990
141.6733, 2.475342
142.1555, 1.135498
142.6376, 1.055176
143.1197, 5.818604
143.6018, 9.485107
144.0839, 10.47363
144.5660, 10.20361
145.0482, 11.04150
145.5303, 14.48706
146.0124, 20.09399
146.4945, 24.63623
146.9766, 28.99097
147.4587, 31.71680
147.9409, 31.06177
148.4230, 27.74097
148.9051, 24.98462
149.3872, 25.19580
149.8693, 28.04224
150.3514, 30.24902
150.8336, 31.14453
151.3157, 31.78003
151.7978, 33.31055
152.2799, 35.92383
152.7620, 38.31201
153.2441, 39.13867
153.7263, 39.08447
154.2084, 39.22876
154.6905, 39.91479
155.1726, 41.04126
155.6547, 42.30054
156.1368, 43.38623
156.6190, 45.23853
157.1011, 49.08594
157.5832, 53.95459
158.0653, 57.94775
158.5474, 59.36450
159.0295, 58.45679
159.5117, 58.71484
159.9938, 62.30933
160.4759, 64.88647
160.9580, 63.80933
161.4401, 60.18506
161.9222, 57.05981
162.4044, 57.61572
162.8865, 63.23755
163.3686, 66.61475
163.8507, 66.11035
164.3328, 64.28442
164.8149, 61.52686
165.2971, 58.24146
165.7792, 55.20972
166.2613, 53.23901
166.7434, 52.29224
167.2255, 53.27661
167.7076, 59.65625
168.1898, 65.39746
168.6719, 65.04102
169.1540, 57.86377
169.6361, 48.62012
170.1182, 43.56055
170.6003, 44.25562
171.0825, 45.91650
171.5646, 48.25806
172.0467, 51.33618
172.5288, 55.90137
173.0109, 62.41992
173.4930, 68.69434
173.9752, 70.05493
174.4573, 66.00903
174.9394, 63.41040
175.4215, 64.96973
175.9036, 69.32422
176.3857, 73.87012
176.8679, 78.69678
177.3500, 82.21631
177.8321, 81.39795
178.3142, 75.73071
178.7963, 71.57788
179.2784, 74.21191
179.7606, 82.69580
180.2427, 89.06592
180.7248, 89.37939
181.2069, 88.32593
181.6890, 90.20044
182.1711, 95.42505
182.6533, 101.5249
183.1354, 105.9456
183.6175, 108.3831
184.0996, 111.6182
184.5817, 117.9917
185.0638, 124.3662
185.5460, 128.9792
186.0281, 131.4412
186.5102, 132.3003
186.9923, 131.6375
187.4744, 127.7878
187.9565, 126.9419
188.4387, 133.2175
188.9208, 140.3164
189.4029, 142.8855
189.8850, 139.4956
190.3671, 133.7542
190.8492, 132.8552
191.3314, 141.5659
191.8135, 147.8071
192.2956, 148.6846
192.7777, 148.1038
193.2598, 150.2610
193.7419, 156.6575
194.2241, 164.5825
194.7062, 167.6128
195.1883, 158.9424
195.6704, 153.2722
196.1525, 154.5938
196.6346, 158.1499
197.1168, 157.3381
197.5989, 148.9558
198.0810, 136.4082
198.5631, 129.9390
199.0452, 134.3740
199.5273, 137.8838
200.0095, 138.5427
200.4916, 137.3298
200.9737, 135.4824
201.4558, 133.2000
201.9379, 131.0239
202.4200, 131.0095
202.9022, 135.5046
203.3843, 137.8892
203.8664, 134.2783
204.3485, 126.5090
204.8306, 119.5559
205.3127, 115.2817
205.7949, 113.4812
206.2770, 113.9495
206.7591, 118.8997
207.2412, 121.3784
207.7233, 116.0029
208.2054, 103.8689
208.6876, 91.74268
209.1697, 81.65942
209.6518, 73.64355
210.1339, 67.62354
210.6160, 64.21948
211.0981, 61.09692
211.5803, 56.04419
212.0624, 49.06567
212.5445, 42.72070
213.0266, 38.22583
213.5087, 34.71191
213.9908, 31.67358
214.4730, 29.22754
214.9551, 26.40088
215.4372, 21.42822
215.9193, 13.63013
216.4014, 7.881592
216.8836, 7.618652
217.3657, 8.833984
217.8478, 9.053711
218.3299, 7.681885
218.8120, 5.484863
219.2941, 2.909180
219.7763, 0.9887700
220.2584, 2.046387
220.7405, 3.819336
221.2226, 10.51294
221.7047, 13.63696
222.1868, 12.04712
222.6690, 8.052002
223.1511, 5.509766
223.6332, 5.949707
224.1153, 4.180176
224.5974, 3.982422
225.0795, 11.87646
225.5617, 13.34668
226.0438, 7.090088
226.5259, 1.881104
227.0080, 4.495117
227.4901, 4.261475
227.9722, 10.41357
228.4544, 12.80884
228.9365, 13.23120
229.4186, 12.84644
229.9007, 12.04565
230.3828, 10.65039
230.8649, 8.216797
231.3471, 2.629883
231.8292, 0.4414060
232.3113, 1.060791
232.7934, 3.664795
233.2755, 4.351807
233.7576, 2.355225
234.2398, 0.7377930
234.7219, 2.260254
235.2040, 0.7924800
235.6861, 0.1721190
236.1682, 0.8000490
236.6503, 2.010742
237.1325, 3.187256
237.6146, 4.161865
238.0967, 5.253662
238.5788, 7.061279
239.0609, 10.39404
239.5430, 12.39673
240.0252, 12.07422
240.5073, 10.81396
240.9894, 9.576904
241.4715, 8.601563
241.9536, 8.549805
242.4357, 10.47583
242.9179, 14.74634
243.4000, 19.53979
243.8821, 26.41919
244.3642, 32.94653
244.8463, 35.72485
245.3284, 33.93994
245.8106, 31.16724
246.2927, 31.92163
246.7748, 36.36108
247.2569, 39.86328
247.7390, 41.93188
248.2211, 42.64624
248.7033, 41.37354
249.1854, 37.70850
249.6675, 34.46802
250.1496, 35.22729
250.6317, 39.34937
251.1138, 42.67871
251.5960, 43.19263
252.0781, 42.95239
252.5602, 45.10229
253.0423, 50.31592
253.5244, 55.58154
254.0065, 57.92480
254.4887, 58.17456
254.9708, 58.39893
255.4529, 58.89331
255.9350, 59.73535
256.4171, 60.93628
256.8992, 62.42773
257.3813, 64.60718
257.8635, 68.93970
258.3456, 74.08789
258.8277, 77.63867
259.3098, 77.64624
259.7919, 76.38525
260.2740, 77.49341
260.7562, 81.61133
261.2383, 85.24438
261.7204, 85.13184
262.2025, 83.61719
262.6846, 83.80981
263.1667, 87.62915
263.6489, 92.25439
264.1310, 92.79443
264.6131, 87.86401
265.0952, 84.89136
265.5773, 90.09644
266.0594, 97.84961
266.5416, 102.7493
267.0237, 102.8811
267.5058, 101.0820
267.9879, 100.8394
268.4700, 102.2190
268.9521, 105.0085
269.4343, 111.1509
269.9164, 117.6982
270.3985, 121.9519
270.8806, 123.0962
271.3627, 123.6492
271.8448, 127.6328
272.3270, 136.3176
272.8091, 141.8228
273.2912, 138.4004
273.7733, 133.5288
274.2554, 131.7170
274.7375, 133.7161
275.2197, 137.3406
275.7018, 140.1519
276.1839, 141.8916
276.6660, 144.3596
277.1481, 150.0928
277.6302, 154.7456
278.1124, 155.2954
278.5945, 152.2544
279.0766, 148.8994
279.5587, 148.6040
280.0408, 151.6304
280.5229, 155.5085
281.0051, 163.1511
281.4872, 169.0051
281.9693, 169.8198
282.4514, 166.1807
282.9335, 161.2634
283.4156, 158.6299
283.8978, 158.8276
284.3799, 157.2695
284.8620, 150.7983
285.3441, 144.5027
285.8262, 140.6501
286.3083, 138.5364
286.7905, 136.0667
287.2726, 131.6248
287.7547, 125.4585
288.2368, 119.8484
288.7189, 114.7405
289.2010, 110.6052
289.6832, 107.1577
290.1653, 104.3958
290.6474, 103.1113
291.1295, 104.4490
291.6116, 106.9463
292.0938, 103.6074
292.5759, 88.26196
293.0580, 75.56763
293.5401, 69.11060
294.0222, 66.29688
294.5043, 64.62476
294.9865, 63.04199
295.4686, 61.25415
295.9507, 58.39795
296.4328, 53.39331
296.9149, 49.28125
297.3970, 46.62744
297.8792, 44.76025
298.3613, 43.33838
298.8434, 42.19019
299.3255, 40.95850
299.8076, 38.87158
300.2897, 35.01489
300.7719, 32.40283
301.2540, 32.33643
301.7361, 32.48828
302.2182, 31.06982
302.7003, 27.96362
303.1824, 24.60840
303.6646, 22.76978
304.1467, 22.86450
304.6288, 23.00977
305.1109, 21.96680
305.5930, 22.01831
306.0751, 24.80127
306.5573, 29.87769
307.0394, 35.55908
307.5215, 40.64771
308.0036, 45.28931
308.4857, 47.38086
308.9678, 43.35522
309.4500, 40.19482
309.9321, 39.35913
310.4142, 40.96533
310.8963, 44.98584
311.3784, 51.69434
311.8605, 60.67603
312.3427, 68.59961
312.8248, 76.47266
313.3069, 81.90381
313.7890, 81.40918
314.2711, 79.20410
314.7532, 80.90869
315.2354, 89.45361
315.7175, 102.7393
316.1996, 115.1179
316.6817, 129.5325
317.1638, 137.8020
317.6459, 134.1921
318.1281, 127.4844
318.6102, 126.2871
319.0923, 133.0696
319.5744, 142.9319
320.0565, 147.3215
320.5386, 142.0322
321.0208, 141.2524
321.5029, 146.5034
321.9850, 154.6296
322.4671, 165.9890
322.9492, 179.4841
323.4313, 190.8992
323.9135, 194.7437
324.3956, 188.8079
324.8777, 186.4402
325.3598, 189.4360
325.8419, 194.3127
326.3240, 200.7097
326.8062, 208.0083
327.2883, 215.2146
327.7704, 221.6008
328.2525, 227.1963
328.7346, 232.7578
329.2167, 240.0442
329.6989, 245.1831
330.1810, 246.3652
330.6631, 245.0867
331.1452, 243.4417
331.6273, 242.5144
332.1094, 242.1162
332.5916, 241.5227
333.0737, 239.9294
333.5558, 239.6548
334.0379, 242.8252
334.5200, 246.4058
335.0021, 247.0132
335.4843, 243.6406
335.9664, 238.9404
336.4485, 237.0586
336.9306, 238.4199
337.4127, 241.3857
337.8948, 250.3074
338.3770, 257.2917
338.8591, 255.9629
339.3412, 246.7166
339.8233, 236.2351
340.3055, 231.9360
340.7876, 234.7361
341.2697, 234.5356
341.7518, 227.8206
342.2339, 221.4004
342.7160, 219.1746
343.1982, 219.4463
343.6803, 217.6868
344.1624, 209.8867
344.6445, 197.7524
345.1266, 190.1052
345.6087, 189.6379
346.0909, 189.5029
346.5730, 188.1531
347.0551, 185.5405
347.5372, 181.2988
348.0193, 174.9395
348.5014, 167.9133
348.9836, 163.1296
349.4657, 161.5776
349.9478, 159.0227
350.4299, 153.5283
350.9120, 147.1104
351.3941, 141.0535
351.8763, 135.6250
352.3584, 130.5635
352.8405, 125.4089
353.3226, 120.0996
353.8047, 116.2273
354.2868, 116.4265
354.7690, 115.4932
355.2511, 108.7354
355.7332, 97.50439
356.2153, 87.81836
356.6974, 85.27686
357.1795, 87.69678
357.6617, 85.99023
358.1438, 77.95410
358.6259, 70.22925
359.1080, 67.31470
359.5901, 67.04883
360.0722, 65.99463
360.5544, 62.60327
361.0365, 58.28052
361.5186, 55.27954
362.0007, 53.90820
362.4828, 51.42944
362.9649, 45.39331
363.4471, 38.39185
363.9292, 33.51440
364.4113, 31.42090
364.8934, 29.80908
365.3755, 26.08594
365.8576, 20.95020
366.3398, 18.75195
366.8219, 22.09033
367.3040, 26.40210
367.7861, 26.41895
368.2682, 22.32568
368.7503, 17.94629
369.2325, 14.12451
369.7146, 11.23169
370.1967, 10.71899
370.6788, 13.49902
371.1609, 15.24731
371.6430, 10.82104
372.1252, 2.191162
372.6073, 3.583740
373.0894, 4.625000
373.5715, 3.639648
374.0536, 1.544434
374.5357, 1.308105
375.0179, 2.346924
375.5000, 0.2055660
375.9821, 4.708252
376.4642, 7.279785
376.9463, 7.003174
377.4284, 6.295654
377.9106, 6.907227
378.3927, 7.823242
378.8748, 6.835449
379.3569, 3.194824
379.8390, 1.296631
380.3211, 4.367920
380.8033, 5.713135
381.2854, 6.396729
381.7675, 6.166260
382.2496, 5.505859
382.7317, 4.517822
383.2138, 3.459473
383.6960, 3.475342
384.1781, 5.625244
384.6602, 9.701416
385.1423, 12.69507
385.6244, 14.90942
386.1065, 15.92920
386.5887, 13.73633
387.0708, 10.50244
387.5529, 10.20825
388.0350, 14.66528
388.5171, 21.95142
388.9992, 27.95166
389.4814, 33.13257
389.9635, 35.95410
390.4456, 35.47290
390.9277, 33.32568
391.4098, 30.01318
391.8919, 26.08496
392.3741, 22.88379
392.8562, 21.75562
393.3383, 22.74341
393.8204, 25.67285
394.3025, 34.31274
394.7846, 40.90137
395.2668, 40.47290
395.7489, 36.30127
396.2310, 34.86450
396.7131, 40.16479
397.1952, 50.01172
397.6773, 56.72485
398.1595, 58.18018
398.6416, 59.87378
399.1237, 63.09131
399.6058, 66.47021
400.0879, 68.38281
400.5700, 68.63159
401.0522, 69.04492
401.5343, 72.17065
402.0164, 78.55518
402.4985, 84.35327
402.9806, 90.18823
403.4627, 94.55469
403.9449, 96.04639
404.4270, 95.46680
404.9091, 94.84570
405.3912, 95.42847
405.8733, 96.86865
406.3554, 98.21484
406.8376, 99.61060
407.3197, 100.5129
407.8018, 101.0850
408.2839, 100.8972
408.7660, 98.98608
409.2481, 94.75317
409.7303, 90.70068
410.2124, 90.42358
410.6945, 93.53809
411.1766, 93.72559
411.6587, 88.63184
412.1408, 81.42456
412.6230, 74.48535
413.1051, 67.93555
413.5872, 62.83618
414.0693, 59.86377
414.5514, 58.52710
415.0335, 59.14355
415.5157, 62.09741
415.9978, 62.73486
416.4799, 56.29614
416.9620, 45.43994
417.4441, 38.84619
417.9262, 40.79468
418.4084, 41.73633
418.8905, 33.04150
419.3726, 19.03369
419.8547, 12.01050
420.3368, 17.25342
420.8189, 27.41772
421.3011, 30.35034
421.7832, 24.00024
422.2653, 19.67310
422.7474, 21.61743
423.2295, 24.02515
423.7116, 20.63599
424.1938, 11.81519
424.6759, 3.636719
425.1580, 0.8666990
425.6401, 3.228271
426.1222, 5.525635
426.6043, 10.06006
427.0865, 11.87549
427.5686, 7.863525
428.0507, 0.9484860
428.5328, 5.333984
429.0149, 9.588135
429.4970, 11.66016
429.9792, 11.04639
430.4613, 6.025635
430.9434, 2.212402
431.4255, 9.3262002E-02
431.9076, 1.609375
432.3897, 4.425537
432.8719, 7.616699
433.3540, 8.592041
433.8361, 4.638428
434.3182, 3.249512
434.8003, 7.626221
435.2824, 5.320068
435.7646, 4.265869
436.2467, 7.719482
436.7288, 12.57251
437.2109, 15.67090
437.6930, 16.11523
438.1751, 14.74536
438.6573, 11.46240
439.1394, 5.932373
439.6215, 3.576904
440.1036, 8.027832
440.5857, 12.64111
441.0678, 12.69580
441.5500, 9.133301
442.0321, 5.762207
442.5142, 5.110107
442.9963, 5.621094
443.4784, 4.254639
443.9605, 0.7763670
444.4427, 2.768799
444.9248, 5.425293
445.4069, 7.477783
445.8890, 9.403809
446.3711, 11.15405
446.8532, 13.00195
447.3354, 15.50879
447.8175, 18.17871
448.2996, 19.66504
448.7817, 19.50708
449.2638, 19.19531
449.7459, 20.65649
450.2281, 24.02979
450.7102, 25.76733
451.1923, 23.43237
451.6744, 21.46631
452.1565, 22.74072
452.6386, 26.76172
453.1208, 31.84570
453.6029, 37.26611
454.0850, 42.73584
454.5671, 47.46094
455.0492, 50.96582
455.5313, 54.31885
456.0135, 57.90552
456.4956, 61.11084
456.9777, 62.92822
457.4598, 63.58228
457.9419, 64.63403
458.4240, 67.42358
458.9062, 71.95483
459.3883, 78.74316
459.8704, 91.53809
460.3525, 102.4458
460.8346, 109.4102
461.3167, 113.6619
461.7989, 115.8706
462.2810, 116.2212
462.7631, 117.4905
463.2452, 125.0261
463.7273, 140.2742
464.2094, 153.0435
464.6916, 159.8015
465.1737, 165.7986
465.6558, 173.5479
466.1379, 183.0442
466.6200, 193.8215
467.1021, 205.7510
467.5843, 218.7407
468.0664, 232.9355
468.5485, 248.6428
469.0306, 263.5957
469.5127, 275.5703
469.9948, 287.0081
470.4770, 301.6614
470.9591, 320.4639
471.4412, 339.5149
471.9233, 356.4556
472.4054, 372.4780
472.8875, 389.2905
473.3697, 407.1511
473.8518, 426.9436
474.3339, 450.8064
474.8160, 478.4128
475.2981, 499.8596
475.7802, 510.6387
476.2624, 520.0986
476.7445, 531.9160
477.2266, 545.5176
477.7087, 559.9402
478.1908, 574.9312
478.6729, 589.2913
479.1551, 600.9116
479.6372, 609.6765
480.1193, 615.5730
480.6014, 618.2393
481.0835, 618.7847
481.5656, 618.3210
482.0478, 616.3008
482.5299, 610.6775
483.0120, 599.8530
483.4941, 585.5359
483.9762, 573.9956
484.4583, 568.2993
484.9405, 558.9700
485.4226, 541.6636
485.9047, 521.7656
486.3868, 503.0806
486.8689, 486.3748
487.3510, 471.0449
487.8332, 455.8049
488.3153, 441.6724
488.7974, 432.3975
489.2795, 429.4126
489.7616, 427.7588
490.2437, 424.3953
490.7259, 420.4119
491.2080, 417.2373
491.6901, 414.4468
492.1722, 413.3306
492.6543, 415.5811
493.1364, 420.9878
493.6186, 427.0833
494.1007, 432.4907
494.5828, 440.6858
495.0649, 457.0981
495.5470, 482.9363
496.0291, 505.8523
496.5113, 523.2471
496.9934, 540.1482
497.4755, 558.2244
497.9576, 577.5684
498.4397, 599.0789
498.9218, 623.3757
499.4040, 649.9512
499.8861, 676.7959
500.3682, 702.1272
500.8503, 730.4128
501.3324, 764.6587
501.8145, 799.3623
502.2967, 832.0420
502.7788, 862.0776
503.2609, 889.4832
503.7430, 914.1509
504.2251, 936.6003
504.7072, 958.6919
505.1894, 980.9509
505.6715, 1001.805
506.1536, 1022.877
506.6357, 1041.159
507.1178, 1053.685
507.5999, 1060.216
508.0821, 1063.388
508.5642, 1064.397
509.0463, 1063.585
509.5284, 1063.358
510.0105, 1065.438
510.4926, 1060.863
510.9748, 1041.186
511.4569, 1011.404
511.9390, 983.8545
512.4211, 960.7236
512.9032, 937.3005
513.3853, 912.2686
513.8674, 885.1892
514.3495, 855.4797
514.8317, 822.7295
515.3138, 787.7039
515.7959, 750.5867
516.2780, 710.9321
516.7601, 674.1821
517.2422, 642.6604
517.7244, 610.7480
518.2065, 574.3967
518.6886, 537.1775
519.1707, 504.8159
519.6528, 479.2544
520.1349, 456.7610
520.6171, 431.7170
521.0992, 403.0483
521.5813, 376.2844
522.0634, 349.9993
522.5455, 327.3806
523.0276, 312.0625
523.5098, 300.9067
523.9919, 288.3359
524.4740, 271.7488
524.9561, 252.9180
525.4382, 232.4368
525.9203, 210.3057
526.4025, 194.0535
526.8846, 188.8730
527.3667, 185.7051
527.8488, 174.2607
528.3309, 156.0637
528.8130, 140.9409
529.2952, 134.8950
529.7773, 130.7473
530.2594, 120.8025
530.7415, 106.4160
531.2236, 94.46069
531.7057, 88.26074
532.1879, 85.26270
532.6700, 80.58301
533.1521, 72.94531
533.6342, 66.45166
534.1163, 61.74683
534.5984, 57.76514
535.0806, 54.11206
535.5627, 50.58691
536.0448, 46.45728
536.5269, 41.04492
537.0090, 35.82251
537.4911, 36.12476
537.9733, 46.75488
538.4554, 52.11230
538.9375, 47.05542
539.4196, 39.19629
539.9017, 31.32104
540.3839, 24.52148
540.8660, 20.95825
541.3481, 23.85693
541.8302, 29.89893
542.3123, 31.00537
542.7944, 26.52930
543.2766, 22.94800
543.7587, 23.00977
544.2408, 25.17188
544.7229, 27.53955
545.2050, 30.34766
545.6871, 31.58179
546.1693, 29.36621
546.6514, 25.97461
547.1335, 23.02417
547.6156, 20.99536
548.0977, 21.61523
548.5798, 26.40308
549.0620, 33.83423
549.5441, 38.74976
550.0262, 37.99438
550.5083, 38.81372
550.9904, 42.27197
551.4725, 46.54102
551.9547, 51.48096
552.4368, 56.04321
552.9189, 57.49463
553.4010, 53.18188
553.8831, 44.96167
554.3652, 40.22949
554.8474, 39.87427
555.3295, 40.88257
555.8116, 43.51685
556.2937, 46.69214
556.7758, 49.39282
557.2579, 51.60352
557.7401, 54.49902
558.2222, 59.87012
558.7043, 66.03149
559.1864, 69.91553
559.6685, 71.37573
560.1506, 71.65503
560.6328, 70.56787
561.1149, 69.36719
561.5970, 71.21460
562.0791, 77.13135
562.5612, 82.54370
563.0433, 87.05859
563.5255, 89.96777
564.0076, 90.36084
564.4897, 88.90845
564.9718, 87.17480
565.4539, 85.92041
565.9360, 85.11646
566.4182, 85.27588
566.9003, 88.12354
567.3824, 88.59985
567.8645, 85.10376
568.3466, 80.76782
568.8287, 77.39795
569.3109, 75.11816
569.7930, 73.43262
570.2751, 72.35352
570.7572, 71.03394
571.2393, 67.13330
571.7214, 60.38330
572.2036, 54.66162
572.6857, 51.99170
573.1678, 50.04419
573.6499, 45.29883
574.1320, 38.08423
574.6141, 33.43457
575.0963, 34.83545
575.5784, 37.17432
576.0605, 36.25684
576.5426, 32.76196
577.0247, 28.80664
577.5068, 25.32642
577.9890, 22.17212
578.4711, 19.14648
578.9532, 16.64795
579.4353, 13.25757
579.9174, 6.326416
580.3995, 1.217285
580.8817, 1.945068
581.3638, 6.178955
581.8459, 9.442383
582.3280, 9.636719
582.8101, 7.890137
583.2922, 5.631104
583.7744, 2.785400
584.2565, 0.5876460
584.7386, 0.9743650
585.2207, 1.617432
585.7029, 0.5126950
586.1850, 1.825928
586.6671, 3.326416
587.1492, 3.294434
587.6313, 2.951660
588.1135, 3.106445
588.5956, 3.797119
589.0777, 4.128418
589.5598, 3.830078
590.0419, 4.110107
590.5240, 6.593262
591.0062, 11.52930
591.4883, 13.34839
591.9704, 10.41602
592.4525, 7.353516
592.9346, 4.258057
593.4167, 1.522705
593.8989, 0.7749020
594.3810, 2.432861
594.8631, 2.601807
595.3452, 0.6188960
595.8273, 6.758789
596.3094, 9.287354
596.7916, 6.533936
597.2737, 4.137207
597.7558, 5.350342
598.2379, 7.651611
598.7200, 8.372314
599.2021, 7.189941
599.6843, 5.725342
600.1664, 4.052734
600.6485, 3.022217
601.1306, 4.494873
601.6127, 8.309570
602.0948, 10.66772
602.5770, 8.979980
603.0591, 5.065186
603.5412, 4.021973
604.0233, 9.566406
604.5054, 11.97192
604.9875, 7.716797
605.4697, 3.185303
605.9518, 3.293945
606.4339, 6.649414
606.9160, 8.873779
607.3981, 7.363525
607.8802, 3.627197
608.3624, 0.4890140
608.8445, 2.080322
609.3266, 3.412598
609.8087, 3.010742
610.2908, 1.793457
610.7729, 0.2790530
611.2551, 2.711426
611.7372, 3.850098
612.2193, 2.689697
612.7014, 0.8535160
613.1835, 1.058105
613.6656, 2.739258
614.1478, 3.344971
614.6299, 2.679199
615.1120, 1.813232
615.5941, 1.883545
616.0762, 2.897217
616.5583, 3.379395
617.0405, 2.971436
617.5226, 2.522705
618.0047, 1.607422
618.4868, 1.071289
618.9689, 2.253906
619.4510, 5.011230
619.9332, 7.269775
620.4153, 6.647949
620.8974, 4.261475
621.3795, 4.638672
621.8616, 8.492432
622.3438, 11.15137
622.8259, 10.60229
623.3080, 8.177246
623.7901, 5.312500
624.2722, 1.906982
624.7543, 0.4479980
625.2365, 1.181396
625.7186, 0.8427730
626.2007, 1.334717
626.6828, 4.240479
627.1649, 4.517578
627.6470, 0.7197270
628.1292, 4.492432
628.6113, 6.732910
629.0934, 5.128906
629.5755, 4.078125
630.0576, 5.030029
630.5397, 4.907227
631.0219, 1.091309
631.5040, 3.709961
631.9861, 5.909424
632.4682, 4.474854
632.9503, 0.5358890
633.4324, 7.283203
633.9146, 16.79102
634.3967, 20.13452
634.8788, 16.18286
635.3609, 10.88647
635.8430, 6.856689
636.3251, 4.411621
636.8073, 4.964111
637.2894, 10.08203
637.7715, 13.97559
638.2536, 15.03857
638.7357, 15.17212
639.2178, 15.84766
639.7000, 16.89746
640.1821, 17.44043
640.6642, 16.99585
641.1463, 15.71265
641.6284, 13.85864
642.1105, 11.44702
642.5927, 8.180908
643.0748, 1.683838
643.5569, 2.528564
644.0390, 0.9985350
644.5211, 8.344238
645.0032, 11.05396
645.4854, 5.072266
645.9675, 0.7590330
646.4496, 0.5449220
646.9317, 5.760498
647.4138, 9.595947
647.8959, 11.14355
648.3781, 9.776367
648.8602, 4.321289
649.3423, 3.759521
649.8244, 7.292969
650.3065, 1.671631
650.7886, 1.683838
651.2708, 0.3937990
651.7529, 1.478271
652.2350, 1.015137
652.7171, 1.255615
653.1992, 3.063232
653.6813, 3.070313
654.1635, 2.186279
654.6456, 1.395752
655.1277, 0.7709960
655.6098, 1.747070
656.0919, 5.363281
656.5740, 8.317383
657.0562, 6.819824
657.5383, 1.782471
658.0204, 4.9316000E-02
658.5025, 4.514160
658.9846, 8.676270
659.4667, 11.65356
659.9489, 12.81104
660.4310, 10.27563
660.9131, 4.772217
661.3952, 5.8594000E-02
661.8773, 1.032471
662.3594, 0.5041500
662.8416, 1.515869
663.3237, 2.101807
663.8058, 1.728516
664.2879, 1.009521
664.7700, 3.362793
665.2521, 3.141846
665.7343, 0.9169920
666.2164, 1.303223
666.6985, 2.646729
667.1806, 4.136963
667.6627, 7.828125
668.1448, 11.94360
668.6270, 12.16675
669.1091, 7.898682
669.5912, 3.526611
670.0733, 2.920410
670.5554, 5.611572
671.0375, 8.136230
671.5197, 10.03784
672.0018, 12.47314
672.4839, 16.78589
672.9660, 20.66748
673.4481, 22.55054
673.9302, 22.48022
674.4124, 21.16528
674.8945, 18.48315
675.3766, 15.58521
675.8587, 13.72095
676.3408, 12.86084
676.8229, 12.96558
677.3051, 13.98340
677.7872, 15.58447
678.2693, 18.00879
678.7514, 21.16870
679.2335, 22.48584
679.7156, 19.12866
680.1978, 17.51416
680.6799, 21.32739
681.1620, 25.62622
681.6441, 25.62427
682.1262, 21.91675
682.6083, 18.27637
683.0905, 16.81641
683.5726, 16.97046
684.0547, 18.31665
684.5368, 20.79150
685.0189, 21.04028
685.5010, 17.74414
685.9832, 14.34131
686.4653, 14.09009
686.9474, 16.21729
687.4295, 16.67236
687.9116, 13.15039
688.3937, 10.99951
688.8759, 13.50806
689.3580, 16.63281
689.8401, 16.10278
690.3222, 12.49756
690.8043, 9.705811
691.2864, 10.19434
691.7686, 12.50684
692.2507, 13.47168
692.7328, 12.78223
693.2149, 12.82739
693.6970, 14.46021
694.1791, 16.07520
694.6613, 16.22510
695.1434, 15.62549
695.6255, 15.92896
696.1076, 18.16821
696.5897, 19.69580
697.0718, 18.97021
697.5540, 17.05103
698.0361, 14.50073
698.5182, 11.85742
699.0003, 10.91748
699.4824, 12.95581
699.9645, 16.42871
700.4467, 17.41260
700.9288, 14.97168
701.4109, 12.82861
701.8930, 11.82788
702.3751, 11.41919
702.8572, 11.35791
703.3394, 11.41260
703.8215, 11.25146
704.3036, 11.35107
704.7857, 10.99121
705.2678, 8.199463
705.7499, 5.250488
706.2321, 5.793701
706.7142, 9.446533
707.1963, 12.93262
707.6784, 15.02979
708.1605, 16.31128
708.6426, 16.34082
709.1248, 13.92212
709.6069, 13.29053
710.0890, 16.10107
710.5711, 19.22070
711.0532, 22.20508
711.5353, 24.38721
712.0175, 24.71265
712.4996, 22.91577
712.9817, 20.89526
713.4638, 19.87671
713.9459, 19.47559
714.4280, 18.88232
714.9102, 18.12622
715.3923, 17.85010
715.8744, 18.48560
716.3565, 19.59326
716.8386, 19.89917
717.3207, 19.11499
717.8029, 19.23877
718.2850, 21.22339
718.7671, 22.82227
719.2492, 22.79321
719.7313, 22.58081
720.2134, 24.68579
720.6956, 28.82495
721.1777, 30.54028
721.6598, 24.29419
722.1419, 15.99194
722.6240, 14.60327
723.1061, 18.43506
723.5883, 19.83350
724.0704, 16.37549
724.5525, 11.71777
725.0346, 9.676514
725.5167, 10.21777
725.9988, 11.13281
726.4810, 12.43823
726.9631, 13.97070
727.4452, 16.29224
727.9273, 18.35425
728.4094, 19.17578
728.8915, 18.98535
729.3737, 18.84351
729.8558, 18.87891
730.3379, 19.80811
730.8200, 23.60645
731.3021, 28.81274
731.7842, 31.31665
732.2664, 30.42310
732.7485, 27.60913
733.2306, 23.48438
733.7127, 18.90967
734.1948, 17.32642
734.6769, 19.99951
735.1591, 23.46777
735.6412, 30.86279
736.1233, 35.76318
736.6054, 32.10962
737.0875, 24.26953
737.5696, 20.95776
738.0518, 25.54272
738.5339, 31.02026
739.0160, 31.37695
739.4981, 28.98608
739.9802, 27.81567
740.4623, 28.18945
740.9445, 30.28076
741.4266, 34.55664
741.9087, 38.71851
742.3908, 37.98999
742.8729, 29.98267
743.3550, 27.44165
743.8372, 37.25952
744.3193, 44.29346
744.8014, 42.27954
745.2835, 36.73877
745.7656, 33.49976
746.2477, 33.39478
746.7299, 34.28320
747.2120, 35.52710
747.6941, 36.73999
748.1762, 37.52466
748.6583, 37.90576
749.1404, 38.03833
749.6226, 37.97217
750.1047, 37.31006
750.5868, 35.29614
751.0689, 32.29614
751.5510, 32.46167
752.0331, 38.28442
752.5153, 42.47485
752.9974, 43.47607
753.4795, 42.82715
753.9616, 40.22266
754.4437, 36.67017
754.9258, 35.08594
755.4080, 36.87671
755.8901, 39.75537
756.3722, 43.47681
756.8543, 46.66089
757.3364, 46.33691
757.8185, 42.92871
758.3007, 40.41772
758.7828, 41.33887
759.2649, 43.84521
759.7470, 43.44995
760.2291, 38.89746
760.7112, 37.54517
761.1934, 40.46973
761.6755, 45.21924
762.1576, 53.55322
762.6397, 61.69043
763.1218, 64.08179
763.6039, 59.70801
764.0861, 55.31421
764.5682, 51.74438
765.0503, 49.89673
765.5324, 52.48511
766.0145, 57.13159
766.4966, 58.62476
766.9788, 55.71045
767.4609, 51.84521
767.9430, 50.43555
768.4251, 51.07837
768.9072, 51.93457
769.3893, 53.22559
769.8715, 53.83008
770.3536, 53.03760
770.8357, 51.65088
771.3178, 49.95117
771.7999, 48.16235
772.2820, 47.33545
772.7642, 48.47876
773.2463, 49.22437
773.7284, 47.99683
774.2105, 46.82056
774.6926, 48.38574
775.1747, 51.65479
775.6569, 53.17798
776.1390, 51.28442
776.6211, 48.18091
777.1032, 45.84741
777.5853, 44.04102
778.0674, 41.95996
778.5496, 39.40698
779.0317, 38.49707
779.5138, 40.66553
779.9959, 44.50098
780.4780, 47.97998
780.9601, 51.89844
781.4423, 51.89746
781.9244, 43.82104
782.4065, 37.09766
782.8886, 34.71875
783.3707, 35.24805
783.8528, 38.33081
784.3350, 43.02856
784.8171, 45.50415
785.2992, 41.84302
785.7813, 36.50854
786.2634, 35.74634
786.7455, 38.23315
787.2277, 39.23608
787.7098, 37.84448
788.1919, 37.42993
788.6740, 40.93945
789.1561, 46.99487
789.6382, 50.37549
790.1204, 49.56738
790.6025, 49.72144
791.0846, 51.65161
791.5667, 53.98145
792.0488, 56.52710
792.5309, 58.92871
793.0131, 60.79932
793.4952, 62.15869
793.9773, 62.38428
794.4594, 60.80762
794.9415, 58.31006
795.4236, 54.84692
795.9058, 51.28711
796.3879, 50.20288
796.8700, 52.06421
797.3521, 52.98145
797.8342, 48.17480
798.3163, 39.23462
798.7985, 34.65210
799.2806, 34.93384
799.7627, 36.76758
800.2448, 40.47192
800.7269, 43.75610
801.2090, 44.72778
801.6912, 43.51050
802.1733, 41.26147
802.6554, 36.88159
803.1375, 33.22900
803.6196, 30.74976
804.1017, 29.28613
804.5839, 28.74414
805.0660, 29.21362
805.5481, 31.00073
806.0302, 34.28711
806.5123, 38.16040
806.9944, 41.70801
807.4766, 44.95532
807.9587, 48.96606
808.4408, 53.57495
808.9229, 55.27246
809.4050, 52.47803
809.8871, 48.19238
810.3693, 45.90771
810.8514, 45.62231
811.3335, 45.96509
811.8156, 48.59863
812.2977, 49.07983
812.7798, 43.79541
813.2620, 38.88232
813.7441, 40.38086
814.2262, 45.53198
814.7083, 45.71167
815.1904, 36.39172
815.6725, 27.39917
816.1547, 25.26819
816.6368, 25.58875
817.1189, 22.78674
817.6010, 17.68823
818.0831, 14.54407
818.5652, 15.13354
819.0474, 17.23779
819.5295, 18.90564
820.0116, 19.65503
820.4937, 14.68286
820.9758, 2.482300
821.4579, 6.279419
821.9401, 7.810791
822.4222, 5.317139
822.9043, 0.8940430
823.3864, 5.213135
823.8685, 7.669800
824.3506, 2.580688
824.8328, 0.5290530
825.3149, 2.398926
825.7970, 5.473511
826.2791, 3.164917
826.7612, 2.289429
827.2433, 4.614746
827.7255, 1.191528
828.2076, 2.658203
828.6897, 1.640259
829.1718, 1.458984
829.6539, 1.858154
830.1360, 0.1632080
830.6182, 2.012817
831.1003, 2.855591
831.5824, 3.896973
832.0645, 6.369019
832.5466, 9.164917
833.0287, 6.891968
833.5109, 3.346924
833.9930, 9.420410
834.4751, 6.773804
834.9572, 1.753296
835.4393, 0.4936520
835.9214, 1.110962
836.4036, 3.429321
836.8857, 9.288696
837.3678, 12.91089
837.8499, 12.20532
838.3320, 9.607788
838.8141, 4.396851
839.2963, 0.9492190
839.7784, 0.5643310
840.2605, 6.933960
840.7426, 13.85486
841.2247, 11.99341
841.7068, 5.782349
842.1890, 2.635376
842.6711, 1.925659
843.1532, 3.109741
843.6353, 6.067505
844.1174, 9.380859
844.5995, 11.91821
845.0817, 13.51270
845.5638, 13.98328
846.0459, 13.23523
846.5280, 11.47632
847.0101, 6.869873
847.4922, 3.834961
847.9744, 5.988403
848.4565, 10.09949
848.9386, 11.36035
849.4207, 8.967896
849.9028, 7.067139
850.3849, 7.029053
850.8671, 7.900635
851.3492, 9.887451
851.8313, 11.65601
852.3134, 10.86572
852.7955, 7.744507
853.2776, 5.809204
853.7598, 7.924561
854.2419, 11.23938
854.7240, 10.26562
855.2061, 6.553833
855.6882, 7.444092
856.1703, 13.70862
856.6525, 18.22046
857.1346, 16.76782
857.6167, 11.97412
858.0988, 8.587402
858.5809, 6.573975
859.0630, 6.375000
859.5452, 9.773193
860.0273, 11.77637
860.5094, 10.08325
860.9915, 7.014648
861.4736, 4.098999
861.9557, 1.508057
862.4379, 1.8921001E-02
862.9200, 0.7318120
863.4021, 1.291260
863.8842, 0.1160890
864.3663, 0.9086910
864.8484, 0.4008790
865.3306, 3.175903
865.8127, 4.906616
866.2948, 4.648438
866.7769, 4.231323
867.2590, 5.546875
867.7411, 7.934204
868.2233, 10.68994
868.7054, 13.41418
869.1875, 13.53149
869.6696, 10.25635
870.1517, 7.352173
870.6339, 8.711670
871.1160, 13.01465
871.5981, 13.48950
872.0802, 8.612061
872.5623, 5.457520
873.0444, 5.206177
873.5266, 5.952759
874.0087, 7.212769
874.4908, 8.567505
874.9729, 9.320679
875.4550, 9.511597
875.9371, 8.937622
876.4193, 5.599487
876.9014, 3.839722
877.3835, 6.953247
877.8656, 11.58191
878.3477, 14.62158
878.8298, 15.57458
879.3120, 14.51636
879.7941, 10.99536
880.2762, 7.592285
880.7583, 6.380615
881.2404, 6.895508
881.7225, 9.102051
882.2047, 12.41516
882.6868, 14.92773
883.1689, 15.80957
883.6510, 15.24573
884.1331, 12.96985
884.6152, 9.399902
885.0974, 8.333008
885.5795, 10.41895
886.0616, 12.45898
886.5437, 14.40796
887.0258, 14.62402
887.5079, 11.24585
887.9901, 5.249512
888.4722, 6.1035000E-02
888.9543, 6.858398
889.4364, 7.976807
889.9185, 3.045410
890.4006, 12.40979
890.8828, 13.91797
891.3649, 11.11804
891.8470, 7.997192
892.3291, 5.668213
892.8112, 3.784058
893.2933, 0.7812500
893.7755, 0.8217770
894.2576, 2.601074
894.7397, 7.093750
895.2218, 6.382690
895.7039, 1.747070
896.1860, 0.2604980
896.6682, 5.446655
897.1503, 11.69629
897.6324, 12.22815
898.1145, 8.500366
898.5966, 3.216553
899.0787, 2.955078
899.5609, 3.681396
900.0430, 3.403564
900.5251, 10.67493
901.0072, 10.40283
901.4893, 4.455322
901.9714, 2.104370
902.4536, 4.501953
902.9357, 6.350830
903.4178, 7.584229
903.8999, 7.466797
904.3820, 4.123169
904.8641, 3.2593001E-02
905.3463, 0.1745610
905.8284, 5.383057
906.3105, 7.980103
906.7926, 6.184570
907.2747, 3.348511
907.7568, 1.079468
908.2390, 4.825806
908.7211, 5.900391
909.2032, 4.567871
909.6853, 1.927979
910.1674, 2.169067
910.6495, 5.316895
911.1317, 4.693359
911.6138, 3.236938
912.0959, 4.799316
912.5780, 8.171021
913.0601, 10.09875
913.5422, 9.749512
914.0244, 8.514282
914.5065, 7.458862
914.9886, 6.481201
915.4707, 5.077026
915.9528, 3.440186
916.4349, 3.098145
916.9171, 4.279053
917.3992, 5.228638
917.8813, 4.775513
918.3634, 4.388062
918.8455, 7.013916
919.3276, 13.02966
919.8098, 14.93530
920.2919, 10.86475
920.7740, 7.587769
921.2561, 6.654053
921.7382, 6.914185
922.2203, 8.220947
922.7025, 10.18372
923.1846, 10.73999
923.6667, 9.133301
924.1488, 7.548706
924.6309, 6.264893
925.1130, 4.990112
925.5952, 3.411621
926.0773, 1.846191
926.5594, 0.3345950
927.0415, 0.9114990
927.5236, 0.7642820
928.0057, 2.255859
928.4879, 5.306641
928.9700, 6.468506
929.4521, 6.672241
929.9342, 6.568237
930.4163, 6.549561
930.8984, 7.575684
931.3806, 9.935181
931.8627, 11.92358
932.3448, 11.50977
932.8269, 9.718872
933.3090, 8.580933
933.7911, 7.959351
934.2733, 6.988281
934.7554, 5.568726
935.2375, 5.623291
935.7196, 8.585938
936.2017, 12.56763
936.6838, 13.57874
937.1660, 11.51892
937.6481, 8.205078
938.1302, 2.964233
938.6123, 0.3764650
939.0944, 0.2558590
939.5765, 1.707886
940.0587, 4.364502
940.5408, 7.448730
941.0229, 8.955566
941.5050, 8.538940
941.9871, 7.185425
942.4692, 2.037720
942.9514, 0.7523190
943.4335, 4.045044
943.9156, 11.01819
944.3977, 12.60303
944.8798, 8.455688
945.3619, 5.888550
945.8441, 7.839355
946.3262, 9.536621
946.8083, 8.016479
947.2904, 6.620850
947.7725, 10.11682
948.2546, 15.67688
948.7368, 17.57007
949.2189, 13.93665
949.7010, 9.003296
950.1831, 4.081055
950.6652, 0.4809570
951.1473, 0.4576420
951.6295, 2.240234
952.1116, 2.658203
952.5937, 1.451294
953.0758, 0.9108890
953.5579, 2.359131
954.0400, 4.470459
954.5222, 5.358032
955.0043, 5.572021
955.4864, 7.612183
955.9685, 11.21082
956.4506, 13.44263
956.9327, 13.26184
957.4149, 12.02393
957.8970, 10.93237
958.3791, 9.977783
958.8612, 9.675781
959.3433, 10.00537
959.8254, 9.745361
960.3076, 8.646362
960.7897, 8.495850
961.2718, 10.45764
961.7539, 12.83167
962.2360, 13.09692
962.7181, 11.32947
963.2003, 12.29236
963.6824, 18.55920
964.1645, 22.47583
964.6466, 20.86145
965.1287, 19.81616
965.6108, 23.92261
966.0930, 29.74365
966.5751, 32.57410
967.0572, 32.39233
967.5393, 30.38306
968.0214, 23.61316
968.5035, 19.09412
968.9857, 19.69348
969.4678, 22.30396
969.9499, 25.68384
970.4320, 28.89697
970.9141, 29.97839
971.3962, 28.04993
971.8784, 27.69580
972.3605, 33.56177
972.8426, 38.93799
973.3247, 38.60547
973.8068, 35.40637
974.2889, 32.13770
974.7711, 29.80151
975.2532, 29.53796
975.7353, 32.13940
976.2174, 35.14197
976.6995, 36.92834
977.1816, 37.48987
977.6638, 35.65210
978.1459, 32.57483
978.6280, 31.08838
979.1101, 31.68115
979.5922, 32.85583
980.0743, 33.58569
980.5565, 34.22424
981.0386, 35.76782
981.5207, 37.67383
982.0028, 37.46057
982.4849, 35.31433
982.9670, 34.33801
983.4492, 35.59253
983.9313, 36.81128
984.4134, 35.75745
984.8955, 33.01489
985.3776, 30.51709
985.8597, 28.33337
986.3419, 26.02246
986.8240, 23.52600
987.3061, 20.95813
987.7882, 18.01868
988.2703, 15.98987
988.7524, 16.74670
989.2346, 19.94116
989.7167, 21.61206
990.1988, 21.18030
990.6809, 20.96472
991.1630, 21.51233
991.6451, 21.60645
992.1273, 19.83118
992.6094, 18.00537
993.0915, 19.35706
993.5736, 24.19189
994.0557, 26.91040
994.5378, 27.02893
995.0200, 25.66064
995.5021, 22.23328
995.9842, 18.00989
996.4663, 12.47791
996.9484, 7.093140
997.4305, 3.903931
997.9127, 3.033936
998.3948, 4.623657
998.8769, 12.69153
999.3590, 17.81897
999.8411, 15.44678
1000.323, 10.58411
1000.805, 5.059814
1001.287, 0.7744140
1001.770, 1.330078
1002.252, 7.782349
1002.734, 13.16211
1003.216, 14.86548
1003.698, 14.37903
1004.180, 11.61951
1004.662, 7.802368
1005.144, 3.140625
1005.627, 1.289917
1006.109, 3.050415
1006.591, 1.219971
1007.073, 1.890503
1007.555, 6.539429
1008.037, 9.945679
1008.519, 8.095337
1009.001, 3.849243
1009.483, 1.697754
1009.966, 1.817017
1010.448, 2.081055
1010.930, 1.509644
1011.412, 0.9624020
1011.894, 1.844116
1012.376, 2.927002
1012.858, 0.5208740
1013.340, 2.954590
1013.823, 1.205811
1014.305, 12.31323
1014.787, 17.42432
1015.269, 8.704956
1015.751, 3.208008
1016.233, 2.533081
1016.715, 6.008789
1017.197, 8.889648
1017.679, 7.101563
1018.162, 6.551514
1018.644, 8.400391
1019.126, 9.914551
1019.608, 9.268311
1020.090, 7.561157
1020.572, 6.504517
1021.054, 6.039307
1021.536, 6.022583
1022.018, 6.421875
1022.501, 6.167603
1022.983, 4.970581
1023.465, 3.109741
1023.947, 0.4600830
1024.429, 1.575806
1024.911, 1.053223
1025.393, 8.552246
1025.875, 10.80090
1026.358, 7.020752
1026.840, 4.457397
1027.322, 5.227905
1027.804, 6.466797
1028.286, 5.872192
1028.768, 4.381226
1029.250, 4.389526
1029.732, 6.098999
1030.214, 8.009277
1030.697, 10.94348
1031.179, 10.69495
1031.661, 4.511475
1032.143, 1.094849
1032.625, 0.2196040
1033.107, 4.312012
1033.589, 4.057617
1034.071, 2.999878
1034.553, 5.600464
1035.036, 2.089844
1035.518, 2.376953
1036.000, 7.860352
1036.482, 11.81885
1036.964, 11.36133
1037.446, 8.232300
1037.928, 7.858154
1038.410, 12.05872
1038.893, 12.48145
1039.375, 5.442261
1039.857, 0.5784910
1040.339, 1.733643
1040.821, 4.124634
1041.303, 4.249512
1041.785, 2.858154
1042.267, 1.589722
1042.750, 0.7603760
1043.232, 0.9047850
1043.714, 13.40173
1044.196, 20.78394
1044.678, 14.14490
1045.160, 6.029175
1045.642, 6.793335
1046.124, 12.87231
1046.606, 14.88342
1047.089, 10.83728
1047.571, 8.866089
1048.053, 10.92859
1048.535, 13.51782
1049.017, 16.29871
1049.499, 18.70911
1049.981, 20.85852
1050.463, 22.23413
1050.945, 21.50964
1051.428, 18.21460
1051.910, 15.00085
1052.392, 11.00854
1052.874, 9.026001
1053.356, 10.94482
1053.838, 14.53918
1054.320, 19.40845
1054.802, 23.66687
1055.285, 23.38171
1055.767, 17.67139
1056.249, 13.13708
1056.731, 12.41553
1057.213, 12.36609
1057.695, 10.74072
1058.177, 9.595459
1058.659, 10.41296
1059.141, 12.72937
1059.624, 16.30591
1060.106, 21.10229
1060.588, 23.41797
1061.070, 20.45837
1061.552, 16.98315
1062.034, 13.14380
1062.516, 11.22925
1062.998, 14.38416
1063.480, 20.16370
1063.963, 24.84253
1064.445, 27.66052
1064.927, 28.27087
1065.409, 25.97168
1065.891, 22.64258
1066.373, 16.93628
1066.855, 12.56738
1067.337, 13.49792
1067.820, 17.21643
1068.302, 19.94592
1068.784, 21.02466
1069.266, 20.88037
1069.748, 17.65527
1070.230, 16.79980
1070.712, 23.64758
1071.194, 30.66187
1071.677, 31.62781
1072.159, 29.64343
1072.641, 29.71741
1073.123, 32.10461
1073.605, 33.65320
1074.087, 33.64062
1074.569, 32.36230
1075.051, 27.85425
1075.533, 24.14734
1076.016, 25.74451
1076.498, 28.88843
1076.980, 27.87207
1077.462, 23.27039
1077.944, 20.47339
1078.426, 21.83044
1078.908, 23.24182
1079.390, 22.48132
1079.873, 21.49744
1080.355, 20.97852
1080.837, 21.37598
1081.319, 24.19006
1081.801, 28.22595
1082.283, 29.63708
1082.765, 26.93628
1083.247, 24.60571
1083.729, 24.99817
1084.212, 25.84204
1084.694, 26.69153
1085.176, 26.66223
1085.658, 23.75574
1086.140, 19.51367
1086.622, 17.61072
1087.104, 18.94885
1087.586, 21.40845
1088.068, 26.17651
1088.551, 29.24744
1089.033, 27.06482
1089.515, 23.65808
1089.997, 22.80078
1090.479, 23.40039
1090.961, 22.49268
1091.443, 19.66638
1091.925, 17.83044
1092.408, 18.45044
1092.890, 19.92175
1093.372, 23.27979
1093.854, 25.31189
1094.336, 22.39978
1094.818, 17.38672
1095.300, 14.69775
1095.782, 14.59277
1096.265, 13.94666
1096.747, 10.44849
1097.229, 8.896729
1097.711, 14.24670
1098.193, 18.32788
1098.675, 13.66199
1099.157, 6.916870
1099.639, 7.077881
1100.121, 12.85095
1100.604, 15.29443
1101.086, 11.00488
1101.568, 8.294556
1102.050, 10.84607
1102.532, 13.40930
1103.014, 14.77637
1103.496, 14.21375
1103.978, 9.036987
1104.460, 1.891357
1104.943, 0.2279050
1105.425, 4.503296
1105.907, 9.179810
1106.389, 14.56189
1106.871, 16.99243
1107.353, 12.94946
1107.835, 8.080200
1108.317, 5.817627
1108.800, 5.564453
1109.282, 6.999512
1109.764, 10.26880
1110.246, 9.857300
1110.728, 0.8778080
1111.210, 5.152466
1111.692, 5.214111
1112.174, 3.700806
1112.656, 0.6190190
1113.139, 1.497559
1113.621, 2.579712
1114.103, 11.73315
1114.585, 13.69824
1115.067, 2.729004
1115.549, 5.218506
1116.031, 9.673096
1116.513, 11.70801
1116.995, 10.72998
1117.478, 8.426758
1117.960, 5.862183
1118.442, 3.232544
1118.924, 1.265015
1119.406, 0.3575440
1119.888, 1.618774
1120.370, 6.117432
1120.852, 8.623169
1121.335, 8.113037
1121.817, 5.439087
1122.299, 0.6330570
1122.781, 5.481812
1123.263, 12.14038
1123.745, 19.43933
1124.227, 19.79077
1124.709, 9.891113
1125.192, 5.334717
1125.674, 9.935181
1126.156, 14.09937
1126.638, 13.32947
1127.120, 10.16272
1127.602, 7.060547
1128.084, 4.540894
1128.566, 5.976685
1129.048, 12.23108
1129.531, 13.75085
1130.013, 9.081177
1130.495, 8.156738
1130.977, 14.79065
1131.459, 21.11206
1131.941, 20.36255
1132.423, 16.07434
1132.905, 16.30176
1133.387, 20.64490
1133.870, 22.23999
1134.352, 21.23877
1134.834, 21.51367
1135.316, 23.76831
1135.798, 25.27161
1136.280, 24.47278
1136.762, 23.42908
1137.244, 25.03223
1137.727, 28.24707
1138.209, 29.43201
1138.691, 29.40051
1139.173, 32.57666
1139.655, 38.52942
1140.137, 41.57532
1140.619, 39.97864
1141.101, 38.26575
1141.583, 40.31287
1142.066, 43.78638
1142.548, 45.48694
1143.030, 45.76196
1143.512, 44.08289
1143.994, 41.82434
1144.476, 43.45715
1144.958, 48.78967
1145.440, 52.15784
1145.922, 50.53711
1146.405, 49.37500
1146.887, 54.78064
1147.369, 62.34717
1147.851, 68.78503
1148.333, 73.05017
1148.815, 71.57788
1149.297, 66.96350
1149.779, 66.06836
1150.262, 70.58386
1150.744, 76.20386
1151.226, 81.68872
1151.708, 85.49670
1152.190, 85.42249
1152.672, 84.37512
1153.154, 83.39221
1153.636, 84.01074
1154.119, 89.57874
1154.601, 98.80945
1155.083, 104.8262
1155.565, 104.5931
1156.047, 105.4294
1156.529, 110.7461
1157.011, 116.2207
1157.493, 120.1879
1157.975, 123.4004
1158.458, 126.7598
1158.940, 129.7018
1159.422, 130.3560
1159.904, 128.2198
1160.386, 129.4700
1160.868, 137.5173
1161.350, 144.5750
1161.832, 148.4553
1162.314, 152.8313
1162.797, 161.0129
1163.279, 168.8035
1163.761, 170.9419
1164.243, 168.8232
1164.725, 169.0154
1165.207, 171.9346
1165.689, 177.0190
1166.171, 185.3840
1166.654, 191.6445
1167.136, 193.5732
1167.618, 195.9148
1168.100, 201.9690
1168.582, 209.7773
1169.064, 215.9233
1169.546, 221.0366
1170.028, 226.6177
1170.510, 232.5574
1170.993, 237.8657
1171.475, 242.2197
1171.957, 243.9985
1172.439, 243.0432
1172.921, 244.9949
1173.403, 254.3755
1173.885, 266.2068
1174.367, 270.4194
1174.849, 269.5237
1175.332, 272.0505
1175.814, 276.9170
1176.296, 278.1072
1176.778, 275.3997
1177.260, 274.4944
1177.742, 278.2476
1178.224, 283.6748
1178.706, 288.8752
1179.189, 293.4294
1179.671, 297.3904
1180.153, 300.1753
1180.635, 298.8975
1181.117, 295.7976
1181.599, 296.9539
1182.081, 302.5029
1182.563, 305.2717
1183.046, 300.7722
1183.528, 296.8345
1184.010, 299.8198
1184.492, 302.7163
1184.974, 299.1409
1185.456, 294.3652
1185.938, 294.7690
1186.420, 298.5645
1186.902, 300.5361
1187.385, 299.7004
1187.867, 297.8870
1188.349, 294.0076
1188.831, 291.6194
1189.313, 292.3467
1189.795, 293.4343
1190.277, 294.3333
1190.759, 294.2563
1191.241, 292.0186
1191.724, 288.1345
1192.206, 284.6113
1192.688, 281.1592
1193.170, 279.3081
1193.652, 279.1128
1194.134, 281.1726
1194.616, 287.7380
1195.098, 288.8069
1195.581, 277.3760
1196.063, 261.8682
1196.545, 253.5752
1197.027, 251.4160
1197.509, 251.8462
1197.991, 254.5171
1198.473, 252.6687
1198.955, 246.2354
1199.438, 239.7285
1199.920, 234.3999
1200.402, 228.9285
1200.884, 222.2698
1201.366, 216.7517
1201.848, 217.9299
1202.330, 220.7615
1202.812, 213.9653
1203.294, 202.1707
1203.776, 194.9250
1204.259, 191.7466
1204.741, 188.0110
1205.223, 182.3157
1205.705, 175.4656
1206.187, 167.3323
1206.669, 159.7048
1207.151, 153.8391
1207.633, 148.9912
1208.116, 145.0691
1208.598, 141.5085
1209.080, 138.5164
1209.562, 135.1921
1210.044, 128.9912
1210.526, 119.1543
1211.008, 110.7146
1211.490, 104.7231
1211.973, 100.0312
1212.455, 97.76123
1212.937, 95.02563
1213.419, 90.12305
1213.901, 84.57837
1214.383, 79.97632
1214.865, 75.92188
1215.347, 71.04053
1215.829, 65.14307
1216.312, 59.95093
1216.794, 56.00195
1217.276, 49.76099
1217.758, 40.23120
1218.240, 30.71021
1218.722, 22.58789
1219.204, 17.33472
1219.686, 17.51831
1220.168, 19.84644
1220.651, 14.44116
1221.133, 3.961670
1221.615, 6.8847999E-02
1222.097, 1.049805
1222.579, 0.7119140
1223.061, 6.116699
1223.543, 9.649902
1224.025, 8.709961
1224.508, 6.339111
1224.990, 4.590576
1225.472, 3.502686
1225.954, 2.627441
1226.436, 2.950195
1226.918, 7.049561
1227.400, 12.39795
1227.882, 14.57935
1228.365, 13.60522
1228.847, 10.69849
1229.329, 8.590088
1229.811, 6.958496
1230.293, 6.427490
1230.775, 5.246582
1231.257, 1.924805
1231.739, 1.249268
1232.221, 2.260742
1232.703, 2.710693
1233.186, 3.985840
1233.668, 6.442871
1234.150, 13.21997
1234.632, 26.95312
1235.114, 33.47998
1235.596, 30.49341
1236.078, 31.38965
1236.560, 39.91357
1237.043, 47.36157
1237.525, 48.46069
1238.007, 48.15649
1238.489, 53.11670
1238.971, 61.45239
1239.453, 68.61084
1239.935, 74.64966
1240.417, 78.31812
1240.900, 80.78735
1241.382, 86.63086
1241.864, 96.15161
1242.346, 105.0151
1242.828, 111.1216
1243.310, 116.6174
1243.792, 121.8149
1244.274, 128.8762
1244.756, 142.0945
1245.239, 155.6743
1245.721, 163.4456
1246.203, 167.9326
1246.685, 173.8176
1247.167, 181.1658
1247.649, 186.5227
1248.131, 187.9663
1248.613, 191.8125
1249.095, 201.9529
1249.578, 209.8191
1250.060, 211.4377
1250.542, 214.4780
1251.024, 224.1494
1251.506, 234.7793
1251.988, 239.3152
1252.470, 238.9368
1252.952, 239.6738
1253.435, 242.0640
1253.917, 243.8552
1254.399, 246.3086
1254.881, 246.3997
1255.363, 245.7632
1255.845, 245.8740
1256.327, 246.5181
1256.809, 243.8970
1257.292, 235.8232
1257.774, 228.5652
1258.256, 228.1323
1258.738, 231.2756
1259.220, 237.0554
1259.702, 240.7383
1260.184, 234.3589
1260.666, 222.2954
1261.148, 217.4421
1261.630, 224.3608
1262.113, 227.5967
1262.595, 217.3630
1263.077, 209.7798
1263.559, 210.2144
1264.041, 212.6189
1264.523, 217.8650
1265.005, 220.0708
1265.487, 212.3320
1265.970, 199.4851
1266.452, 192.1067
1266.934, 190.2861
1267.416, 189.0977
1267.898, 189.1709
1268.380, 184.2839
1268.862, 173.4871
1269.344, 165.4902
1269.827, 163.2576
1270.309, 159.7031
1270.791, 149.4451
1271.273, 138.2812
1271.755, 135.9158
1272.237, 137.4109
1272.719, 134.7839
1273.201, 128.2837
1273.683, 115.6680
1274.166, 100.4299
1274.648, 90.44629
1275.130, 86.42261
1275.612, 82.33667
1276.094, 75.31030
1276.576, 70.73926
1277.058, 76.50024
1277.540, 77.22681
1278.022, 61.94946
1278.505, 45.28076
1278.987, 36.18530
1279.469, 31.58716
1279.951, 29.12329
1280.433, 27.73291
1280.915, 22.89844
1281.397, 14.60425
1281.879, 8.042725
1282.362, 3.235596
1282.844, 0.1472170
1283.326, 1.123291
1283.808, 0.3332520
1284.290, 4.761719
1284.772, 7.934814
1285.254, 5.973145
1285.736, 0.0000000E+00
##END=



