##NAMES=Anorthite
##RRUFFID=R060193
##IDEAL CHEMISTRY=CaAl_2_Si_2_O_8_
##LOCALITY=Mexico
##OWNER=RRUFF
##SOURCE=Bill Barker
##DESCRIPTION=Tan colored translucent fragment
##STATUS=The identification of this mineral has been confirmed by X-ray diffraction and chemical analysis
##URL=rruff.info/R060193
##MEASURED CHEMISTRY=(Ca_0.58_Na_0.39_K_0.02_)Al_1.60_Si_2.40_O_8_
168.0016, 0.0000000E+00
168.4837, 0.4761950
168.9658, 1.500922
169.4479, 4.101375
169.9300, 2.912656
170.4122, 0.2221880
170.8943, 1.127270
171.3764, 0.2360180
171.8585, 4.098536
172.3406, 9.626102
172.8227, 16.96625
173.3049, 25.54619
173.7870, 31.61690
174.2691, 33.30385
174.7512, 33.82357
175.2333, 35.75661
175.7154, 39.23029
176.1976, 42.91039
176.6797, 45.53669
177.1618, 47.62548
177.6439, 50.38379
178.1260, 54.55632
178.6081, 59.35507
179.0903, 63.57367
179.5724, 66.94710
180.0545, 70.48927
180.5366, 75.62732
181.0187, 81.32278
181.5008, 85.80081
181.9830, 87.65581
182.4651, 87.97379
182.9472, 90.39346
183.4293, 95.99597
183.9114, 101.7615
184.3935, 106.5742
184.8757, 110.2644
185.3578, 112.9842
185.8399, 114.6713
186.3220, 115.4248
186.8041, 116.6729
187.2862, 119.1816
187.7684, 122.0168
188.2505, 125.1733
188.7326, 128.4374
189.2147, 131.4248
189.6968, 133.7223
190.1789, 135.2882
190.6611, 137.5588
191.1432, 141.2723
191.6253, 144.9786
192.1074, 148.4623
192.5895, 151.5609
193.0716, 154.0450
193.5538, 155.6321
194.0359, 156.1867
194.5180, 157.1158
195.0001, 158.6406
195.4822, 160.4671
195.9643, 162.3391
196.4465, 164.5694
196.9286, 166.5265
197.4107, 167.6111
197.8928, 167.9274
198.3749, 168.2268
198.8570, 168.1343
199.3392, 167.8087
199.8213, 167.0577
200.3034, 165.0288
200.7855, 162.0522
201.2676, 157.3108
201.7497, 150.7040
202.2319, 145.3676
202.7140, 142.8729
203.1961, 140.8499
203.6782, 136.9683
204.1603, 130.9192
204.6424, 124.2015
205.1246, 117.9994
205.6067, 112.1918
206.0888, 106.3121
206.5709, 99.69478
207.0530, 93.17709
207.5351, 88.08716
208.0173, 84.75397
208.4994, 81.86492
208.9815, 78.73666
209.4636, 75.30212
209.9457, 71.27998
210.4278, 66.12002
210.9100, 60.33464
211.3921, 55.02194
211.8742, 50.29508
212.3563, 45.93766
212.8384, 41.74952
213.3205, 37.78423
213.8027, 34.18797
214.2848, 31.20611
214.7669, 28.64315
215.2490, 25.84954
215.7311, 22.67053
216.2132, 19.46511
216.6954, 16.30045
217.1775, 13.22514
217.6596, 10.28157
218.1417, 7.423394
218.6238, 4.718623
219.1059, 2.632718
219.5881, 1.569669
220.0702, 0.6016240
220.5523, 0.1462950
221.0344, 0.8675090
221.5165, 1.786870
221.9986, 3.080283
222.4808, 3.385870
222.9629, 1.947404
223.4450, 0.7274570
223.9271, 0.1857210
224.4092, 0.4991040
224.8913, 0.4379900
225.3735, 0.2451570
225.8556, 3.8936999E-02
226.3377, 0.1899510
226.8198, 0.6538200
227.3019, 1.461620
227.7840, 2.390637
228.2662, 3.702003
228.7483, 3.109912
229.2304, 2.228966
229.7125, 2.251863
230.1946, 3.060506
230.6767, 3.330094
231.1589, 3.717919
231.6410, 2.936910
232.1231, 0.3781110
232.6052, 5.078959
233.0873, 8.990368
233.5694, 10.75447
234.0516, 10.66022
234.5337, 10.72426
235.0158, 10.55169
235.4979, 10.92366
235.9800, 12.60675
236.4621, 15.02696
236.9443, 16.86321
237.4264, 17.25964
237.9085, 16.65643
238.3906, 17.10102
238.8727, 18.58379
239.3548, 20.84789
239.8370, 24.49638
240.3191, 28.92286
240.8012, 32.48160
241.2833, 34.11903
241.7654, 34.63962
242.2475, 36.46627
242.7297, 40.10258
243.2118, 43.95465
243.6939, 47.64783
244.1760, 51.05610
244.6581, 53.65698
245.1402, 54.90286
245.6224, 55.60756
246.1045, 57.49874
246.5866, 60.96112
247.0687, 64.37213
247.5508, 66.77415
248.0329, 68.41439
248.5151, 70.14964
248.9972, 72.09722
249.4793, 74.52638
249.9614, 78.06353
250.4435, 83.01359
250.9256, 87.25225
251.4078, 88.90305
251.8899, 88.60167
252.3720, 89.25410
252.8541, 91.57976
253.3362, 94.98756
253.8183, 99.21097
254.3005, 104.2664
254.7826, 108.4280
255.2647, 109.7234
255.7468, 108.9347
256.2289, 109.5557
256.7110, 113.2574
257.1931, 117.1864
257.6753, 118.9413
258.1574, 118.8144
258.6395, 118.6874
259.1216, 119.8712
259.6037, 122.1059
260.0858, 124.0251
260.5680, 125.0586
261.0501, 126.3624
261.5322, 128.9428
262.0143, 132.3458
262.4964, 135.4191
262.9785, 137.3914
263.4607, 138.4175
263.9428, 139.5881
264.4249, 141.3289
264.9070, 142.5026
265.3891, 142.0947
265.8712, 140.8276
266.3534, 140.1906
266.8355, 141.3417
267.3176, 143.7856
267.7997, 145.3386
268.2818, 145.2739
268.7639, 145.4060
269.2461, 146.6845
269.7282, 148.4951
270.2103, 149.9956
270.6924, 150.8146
271.1745, 150.9463
271.6566, 150.0934
272.1388, 146.7928
272.6209, 145.1087
273.1030, 147.1218
273.5851, 150.6852
274.0672, 153.2765
274.5493, 153.7139
275.0315, 152.8898
275.5136, 153.1108
275.9957, 155.3580
276.4778, 156.7759
276.9599, 156.5154
277.4420, 155.5166
277.9242, 154.5496
278.4063, 153.8756
278.8884, 153.3977
279.3705, 152.9960
279.8526, 152.7543
280.3347, 152.2955
280.8169, 151.6796
281.2990, 150.9923
281.7811, 150.4550
282.2632, 150.0445
282.7453, 149.3512
283.2274, 147.6619
283.7096, 144.5134
284.1917, 141.4762
284.6738, 138.3832
285.1559, 135.5356
285.6380, 133.5140
286.1201, 132.1507
286.6023, 130.5141
287.0844, 127.0471
287.5665, 120.7320
288.0486, 116.2503
288.5307, 115.7688
289.0128, 115.1045
289.4950, 112.5541
289.9771, 108.3362
290.4592, 103.1836
290.9413, 97.76685
291.4234, 92.01377
291.9055, 87.09041
292.3877, 83.53361
292.8698, 80.24163
293.3519, 76.92698
293.8340, 73.60349
294.3161, 70.42573
294.7982, 67.54905
295.2804, 64.91310
295.7625, 61.86472
296.2446, 57.49532
296.7267, 53.68362
297.2088, 51.29118
297.6909, 49.59069
298.1731, 47.60412
298.6552, 44.81993
299.1373, 41.28546
299.6194, 37.14915
300.1015, 30.78549
300.5836, 25.87575
301.0658, 23.87807
301.5479, 23.02229
302.0300, 21.18646
302.5121, 17.57531
302.9942, 13.29393
303.4763, 10.67344
303.9585, 11.67818
304.4406, 11.44472
304.9227, 8.771252
305.4048, 5.652834
305.8869, 3.818111
306.3690, 3.601307
306.8512, 3.940470
307.3333, 3.324311
307.8154, 1.176838
308.2975, 0.4127780
308.7796, 1.016845
309.2617, 1.516644
309.7439, 2.495569
310.2260, 1.137903
310.7081, 0.4151720
311.1902, 1.857868
311.6723, 3.391308
312.1544, 3.281195
312.6366, 0.6082020
313.1187, 1.300127
313.6008, 1.069756
314.0829, 2.096029
314.5650, 9.4851002E-02
315.0471, 0.3983450
315.5293, 0.4999390
316.0114, 1.290141
316.4935, 2.228832
316.9756, 2.423737
317.4577, 2.370388
317.9398, 1.591896
318.4220, 1.377707
318.9041, 2.223372
319.3862, 1.563231
319.8683, 0.5987790
320.3504, 0.7953270
320.8326, 0.7822920
321.3147, 0.6009400
321.7968, 0.1328840
322.2789, 0.9096610
322.7610, 2.565989
323.2431, 4.364054
323.7253, 5.413556
324.2074, 4.887810
324.6895, 5.274627
325.1716, 7.445714
325.6537, 9.758202
326.1358, 10.76517
326.6180, 10.50889
327.1001, 10.42833
327.5822, 12.25830
328.0643, 16.64194
328.5464, 19.62105
329.0285, 20.36249
329.5107, 20.71300
329.9928, 21.06624
330.4749, 21.64989
330.9570, 22.82861
331.4391, 24.98091
331.9212, 27.99441
332.4034, 30.17106
332.8855, 31.07882
333.3676, 31.57806
333.8497, 31.67716
334.3318, 31.49735
334.8139, 31.02685
335.2961, 30.24159
335.7782, 29.46500
336.2603, 29.69036
336.7424, 31.66221
337.2245, 33.60795
337.7066, 35.92614
338.1888, 37.88257
338.6709, 38.74289
339.1530, 38.34773
339.6351, 37.18711
340.1172, 35.99152
340.5993, 34.91512
341.0815, 33.39198
341.5636, 30.14355
342.0457, 27.56218
342.5278, 27.42458
343.0099, 29.42446
343.4920, 31.80436
343.9742, 33.00919
344.4563, 33.00384
344.9384, 32.47129
345.4205, 30.93047
345.9026, 29.28992
346.3847, 27.72699
346.8669, 26.23676
347.3490, 24.66849
347.8311, 22.85278
348.3132, 21.04894
348.7953, 20.46808
349.2774, 22.51496
349.7596, 23.56450
350.2417, 22.37792
350.7238, 20.27883
351.2059, 18.50669
351.6880, 17.48659
352.1701, 16.95079
352.6523, 16.50252
353.1344, 16.16624
353.6165, 15.84378
354.0986, 15.63229
354.5807, 15.34840
355.0628, 14.65506
355.5450, 13.65991
356.0271, 13.00263
356.5092, 13.69615
356.9913, 15.83055
357.4734, 16.61792
357.9555, 15.02258
358.4377, 13.13917
358.9198, 11.70502
359.4019, 10.65467
359.8840, 9.783970
360.3661, 9.002055
360.8482, 8.302555
361.3304, 7.628218
361.8125, 6.908502
362.2946, 6.395237
362.7767, 6.491367
363.2588, 6.681637
363.7409, 6.388715
364.2231, 5.404474
364.7052, 4.120880
365.1873, 2.883152
365.6694, 1.676646
366.1515, 0.9582180
366.6336, 0.9356310
367.1158, 1.424615
367.5979, 2.419861
368.0800, 3.965131
368.5621, 5.682589
369.0442, 6.689466
369.5263, 7.103178
370.0085, 7.816389
370.4906, 9.610259
370.9727, 10.69595
371.4548, 9.164578
371.9369, 5.968727
372.4190, 3.622178
372.9012, 3.360114
373.3833, 4.198252
373.8654, 4.785894
374.3475, 5.101076
374.8296, 5.187716
375.3117, 4.702706
375.7939, 4.269845
376.2760, 4.891047
376.7581, 7.104261
377.2402, 9.165473
377.7223, 9.164692
378.2044, 7.600969
378.6866, 7.012494
379.1687, 8.405772
379.6508, 10.48710
380.1329, 11.82325
380.6150, 12.57848
381.0971, 12.45722
381.5793, 10.33988
382.0614, 7.796241
382.5435, 7.377656
383.0256, 9.446580
383.5077, 11.95166
383.9898, 13.38642
384.4720, 13.89897
384.9541, 14.63420
385.4362, 16.02094
385.9183, 17.27426
386.4004, 17.93222
386.8825, 18.11636
387.3647, 18.18813
387.8468, 18.32130
388.3289, 18.55553
388.8110, 18.94555
389.2931, 19.59994
389.7752, 19.92402
390.2574, 19.50719
390.7395, 19.05127
391.2216, 19.44450
391.7037, 20.90387
392.1858, 22.90506
392.6679, 24.91439
393.1501, 27.00579
393.6322, 28.87302
394.1143, 30.64379
394.5964, 32.10677
395.0785, 32.80891
395.5606, 33.04709
396.0428, 33.70313
396.5249, 35.41813
397.0070, 37.90628
397.4891, 39.67936
397.9712, 39.85894
398.4533, 40.35293
398.9355, 41.54609
399.4176, 43.07019
399.8997, 44.41621
400.3818, 45.45859
400.8639, 46.65632
401.3460, 48.86115
401.8282, 52.88572
402.3103, 55.60373
402.7924, 55.97056
403.2745, 56.16806
403.7566, 57.41577
404.2387, 59.49664
404.7209, 61.49403
405.2030, 62.76492
405.6851, 63.32951
406.1672, 63.29055
406.6493, 62.78230
407.1314, 61.37179
407.6136, 58.28856
408.0957, 54.65388
408.5778, 51.82246
409.0599, 50.29389
409.5420, 49.11835
410.0241, 46.67347
410.5063, 42.59437
410.9884, 39.28350
411.4705, 37.91912
411.9526, 36.75383
412.4347, 34.84393
412.9168, 32.23451
413.3990, 29.43673
413.8811, 26.64867
414.3632, 23.94838
414.8453, 21.65516
415.3274, 19.86255
415.8095, 18.25253
416.2917, 16.68128
416.7738, 15.17628
417.2559, 13.74008
417.7380, 12.26193
418.2201, 11.09032
418.7022, 10.86894
419.1844, 11.45624
419.6665, 11.43336
420.1486, 10.14789
420.6307, 8.385213
421.1128, 7.293558
421.5949, 6.868684
422.0771, 5.963943
422.5592, 2.964815
423.0413, 0.2241210
423.5234, 0.1901480
424.0055, 3.449276
424.4876, 6.431268
424.9698, 5.228909
425.4519, 0.4672500
425.9340, 2.893089
426.4161, 1.941519
426.8982, 1.311493
427.3803, 0.4228410
427.8625, 0.5201370
428.3446, 1.085979
428.8267, 1.115042
429.3088, 0.6965610
429.7909, 0.1028750
430.2730, 1.815036
430.7552, 2.629177
431.2373, 1.969502
431.7194, 0.8353910
432.2015, 0.1204400
432.6836, 0.8450790
433.1657, 1.666288
433.6479, 2.944399
434.1300, 4.563388
434.6121, 4.959575
435.0942, 2.372045
435.5763, 0.5811210
436.0584, 1.103554
436.5406, 2.344091
437.0227, 2.231521
437.5048, 0.1133740
437.9869, 2.675099
438.4690, 2.991560
438.9511, 3.145680
439.4333, 2.747458
439.9154, 2.785508
440.3975, 3.278276
440.8796, 2.577456
441.3617, 0.7795320
441.8438, 0.7050080
442.3260, 1.373241
442.8081, 1.308970
443.2902, 0.5610900
443.7723, 1.413674
444.2544, 2.700037
444.7365, 1.870689
445.2187, 0.4657120
445.7008, 0.1362770
446.1829, 1.295408
446.6650, 2.081033
447.1471, 8.0541998E-02
447.6292, 4.388942
448.1114, 5.995573
448.5935, 2.978439
449.0756, 0.4614040
449.5577, 0.4228090
450.0398, 2.104020
450.5219, 4.378194
451.0041, 5.620116
451.4862, 6.337663
451.9683, 7.181654
452.4504, 8.039420
452.9325, 7.896621
453.4146, 5.821925
453.8968, 3.076512
454.3789, 2.578713
454.8610, 4.732403
455.3431, 7.179430
455.8252, 9.714046
456.3073, 12.10536
456.7895, 13.93543
457.2716, 15.22265
457.7537, 16.66376
458.2358, 18.93546
458.7179, 22.04491
459.2000, 24.69734
459.6822, 26.85079
460.1643, 28.68860
460.6464, 29.97195
461.1285, 31.06588
461.6106, 32.43373
462.0927, 34.25116
462.5748, 36.40116
463.0569, 38.72784
463.5391, 41.31480
464.0212, 43.80792
464.5033, 45.82603
464.9854, 48.09785
465.4675, 50.96693
465.9496, 54.38950
466.4318, 58.19606
466.9139, 62.33961
467.3960, 66.72462
467.8781, 71.03164
468.3602, 75.15685
468.8423, 79.52477
469.3245, 84.49617
469.8066, 89.64754
470.2887, 94.35738
470.7708, 98.57947
471.2529, 103.5390
471.7350, 110.7527
472.2172, 119.5793
472.6993, 127.4075
473.1814, 133.7991
473.6635, 139.8176
474.1456, 145.9493
474.6277, 152.2886
475.1099, 159.0355
475.5920, 166.2875
476.0741, 173.8117
476.5562, 181.7995
477.0383, 189.9217
477.5204, 197.3156
478.0026, 203.5610
478.4847, 209.2599
478.9668, 215.1175
479.4489, 221.2585
479.9310, 227.7654
480.4131, 235.5120
480.8953, 242.5660
481.3774, 247.9227
481.8595, 251.4612
482.3416, 252.6676
482.8237, 250.9629
483.3058, 247.5120
483.7880, 246.2568
484.2701, 250.9099
484.7522, 253.1855
485.2343, 251.2769
485.7164, 248.1013
486.1985, 245.6108
486.6807, 244.1679
487.1628, 243.3525
487.6449, 243.0023
488.1270, 242.9733
488.6091, 241.3345
489.0912, 236.0091
489.5734, 232.4720
490.0555, 233.1266
490.5376, 235.7845
491.0197, 237.8300
491.5018, 238.4547
491.9839, 239.4721
492.4661, 242.9939
492.9482, 248.9897
493.4303, 255.3174
493.9124, 261.0791
494.3945, 267.8789
494.8766, 277.8525
495.3588, 290.1147
495.8409, 301.9185
496.3230, 311.7509
496.8051, 321.7847
497.2872, 334.0521
497.7693, 348.1381
498.2515, 362.5806
498.7336, 376.8670
499.2157, 391.4579
499.6978, 407.1891
500.1799, 424.3232
500.6620, 441.3634
501.1442, 458.4844
501.6263, 475.1741
502.1084, 491.8409
502.5905, 508.1037
503.0726, 522.7050
503.5547, 534.7035
504.0369, 544.5828
504.5190, 554.5150
505.0011, 566.5392
505.4832, 575.5894
505.9653, 580.0359
506.4474, 582.7822
506.9296, 586.8951
507.4117, 591.8466
507.8938, 593.8204
508.3759, 588.9780
508.8580, 578.3938
509.3401, 568.7326
509.8223, 560.8536
510.3044, 551.9151
510.7865, 541.3108
511.2686, 528.9316
511.7507, 514.4756
512.2328, 497.8352
512.7150, 479.4925
513.1971, 458.7307
513.6792, 436.5293
514.1613, 415.7680
514.6434, 397.1049
515.1255, 378.1340
515.6077, 356.3069
516.0898, 332.6237
516.5719, 311.5692
517.0540, 295.0962
517.5361, 279.1897
518.0182, 261.6944
518.5004, 243.6620
518.9825, 226.7175
519.4646, 211.2458
519.9467, 197.2879
520.4288, 185.0406
520.9109, 174.8120
521.3931, 164.1202
521.8752, 152.2840
522.3573, 140.6605
522.8394, 129.2260
523.3215, 118.4841
523.8036, 109.3798
524.2858, 102.3159
524.7679, 96.14054
525.2500, 89.01915
525.7321, 80.63401
526.2142, 72.93355
526.6964, 65.95422
527.1785, 59.86899
527.6606, 55.09676
528.1427, 51.23198
528.6248, 47.37667
529.1069, 43.11119
529.5891, 38.76357
530.0712, 34.71223
530.5533, 30.90379
531.0354, 27.91840
531.5175, 26.59261
531.9996, 25.57018
532.4818, 23.17957
532.9639, 19.44607
533.4460, 15.62894
533.9281, 11.52359
534.4102, 8.022096
534.8923, 6.459820
535.3745, 6.177562
535.8566, 4.740989
536.3387, 0.8647000
536.8208, 3.596859
537.3029, 4.784414
537.7850, 4.8842002E-02
538.2672, 2.488969
538.7493, 1.342159
539.2314, 0.4688290
539.7135, 1.777290
540.1956, 2.307870
540.6777, 1.779760
541.1599, 0.1719140
541.6420, 2.856948
542.1241, 4.366520
542.6062, 4.328649
543.0883, 4.475516
543.5704, 4.776015
544.0526, 5.426685
544.5347, 7.132215
545.0168, 9.724241
545.4989, 11.84713
545.9810, 11.65889
546.4631, 10.69110
546.9453, 11.83052
547.4274, 15.05016
547.9095, 18.72757
548.3916, 22.75512
548.8737, 26.58756
549.3558, 28.93718
549.8380, 29.35407
550.3201, 30.47443
550.8022, 33.18360
551.2843, 36.55565
551.7664, 39.72608
552.2485, 42.76155
552.7307, 46.06660
553.2128, 49.81372
553.6949, 53.67329
554.1770, 56.89601
554.6591, 58.95029
555.1412, 61.34524
555.6234, 64.33881
556.1055, 67.32696
556.5876, 70.00694
557.0697, 72.60114
557.5518, 75.47358
558.0339, 78.90659
558.5161, 82.49389
558.9982, 85.50422
559.4803, 87.95423
559.9624, 90.18472
560.4445, 92.29693
560.9266, 94.02027
561.4088, 95.00108
561.8909, 95.32518
562.3730, 95.74324
562.8551, 97.52275
563.3372, 98.89017
563.8193, 97.38802
564.3015, 93.40358
564.7836, 89.65489
565.2657, 87.38033
565.7478, 85.92118
566.2299, 84.09233
566.7120, 81.67178
567.1942, 79.33871
567.6763, 77.29219
568.1584, 74.99502
568.6405, 72.56746
569.1226, 69.72276
569.6047, 65.54012
570.0869, 59.49276
570.5690, 52.84842
571.0511, 48.38162
571.5332, 46.58284
572.0153, 44.73280
572.4974, 42.51958
572.9796, 40.32013
573.4617, 38.34967
573.9438, 36.54982
574.4259, 34.77560
574.9080, 33.04991
575.3901, 31.19029
575.8723, 28.75005
576.3544, 25.90486
576.8365, 23.77709
577.3186, 22.93838
577.8007, 22.10987
578.2828, 19.46110
578.7650, 14.81840
579.2471, 12.38072
579.7292, 14.16899
580.2113, 16.11076
580.6934, 16.37218
581.1755, 15.42958
581.6577, 14.05672
582.1398, 12.55833
582.6219, 10.99720
583.1040, 9.423461
583.5861, 7.787907
584.0682, 6.580224
584.5504, 5.933390
585.0325, 5.580622
585.5146, 6.294194
585.9967, 6.897532
586.4788, 5.317201
586.9609, 0.8236870
587.4431, 1.482647
587.9252, 2.152797
588.4073, 1.717125
588.8894, 3.165817
589.3715, 0.8288270
589.8536, 1.571011
590.3358, 1.348441
590.8179, 0.6778540
591.3000, 1.505792
591.7821, 0.4286420
592.2642, 0.5519080
592.7463, 0.5762620
593.2285, 0.3216280
593.7106, 0.6033150
594.1927, 1.448519
594.6748, 0.8986730
595.1569, 0.4276240
595.6390, 0.1000880
596.1212, 7.2839998E-02
596.6033, 0.4243770
597.0854, 0.9678340
597.5675, 1.261672
598.0496, 0.3156070
598.5317, 0.1469250
599.0139, 0.1518180
599.4960, 0.1559170
599.9781, 0.9887260
600.4602, 1.210096
600.9423, 0.9346530
601.4244, 1.662909
601.9066, 2.146238
602.3887, 0.8699350
602.8708, 4.333748
603.3529, 5.919942
603.8350, 3.961696
604.3171, 1.954674
604.7993, 0.4579430
605.2814, 0.2709000
605.7635, 0.9670790
606.2456, 1.430060
606.7277, 2.507593
607.2098, 1.265149
607.6920, 0.8079640
608.1741, 9.9216998E-02
608.6562, 0.6512280
609.1383, 0.1429030
609.6204, 1.635959
610.1025, 2.713896
610.5847, 2.052806
611.0668, 0.6696340
611.5489, 0.2019720
612.0310, 0.1426300
612.5131, 0.1030080
612.9952, 5.9000999E-02
613.4774, 1.322312
613.9595, 1.233483
614.4416, 0.1221930
614.9237, 1.912516
615.4058, 2.042322
615.8879, 1.061598
616.3701, 0.8202830
616.8522, 1.911410
617.3343, 2.462617
617.8164, 1.876607
618.2985, 0.7675750
618.7806, 0.5839010
619.2628, 2.190098
619.7449, 2.982672
620.2270, 2.325208
620.7091, 0.7780040
621.1912, 9.5711000E-02
621.6733, 0.2813010
622.1555, 0.3355350
622.6376, 0.4193790
623.1197, 1.097621
623.6018, 1.859384
624.0839, 2.485302
624.5660, 2.358677
625.0482, 0.8286260
625.5303, 1.315260
626.0124, 2.020931
626.4945, 1.887931
626.9766, 1.481568
627.4587, 0.8815920
627.9409, 0.4480800
628.4230, 0.5120780
628.9051, 1.073728
629.3872, 1.914606
629.8693, 3.799984
630.3514, 4.952215
630.8336, 4.414573
631.3157, 3.316205
631.7978, 2.723275
632.2799, 2.822000
632.7620, 3.316788
633.2441, 4.138848
633.7263, 5.050756
634.2084, 5.013080
634.6905, 3.804081
635.1726, 2.459220
635.6547, 0.7098190
636.1368, 1.496130
636.6190, 0.8667610
637.1011, 2.483532
637.5832, 4.203533
638.0653, 4.143760
638.5474, 3.409081
639.0295, 2.645039
639.5117, 2.028144
639.9938, 2.022871
640.4759, 2.790902
640.9580, 3.842739
641.4401, 4.567055
641.9222, 4.947126
642.4044, 5.157696
642.8865, 5.047644
643.3686, 4.934230
643.8507, 4.669230
644.3328, 4.543230
644.8149, 5.100183
645.2971, 6.262038
645.7792, 7.292467
646.2613, 7.533357
646.7434, 7.163754
647.2255, 6.929475
647.7076, 6.724998
648.1898, 6.869214
648.6719, 7.781463
649.1540, 8.736583
649.6361, 8.458999
650.1182, 6.500019
650.6003, 5.409766
651.0825, 6.175680
651.5646, 7.067769
652.0467, 7.148592
652.5288, 6.662387
653.0109, 5.953030
653.4930, 5.178599
653.9752, 4.539782
654.4573, 4.407533
654.9394, 4.801274
655.4215, 4.919605
655.9036, 4.780872
656.3857, 4.411767
656.8679, 3.358943
657.3500, 2.259171
657.8321, 1.909931
658.3142, 2.481948
658.7963, 3.193765
659.2784, 3.836704
659.7606, 4.112707
660.2427, 3.270828
660.7248, 1.565375
661.2069, 0.7819200
661.6890, 1.996573
662.1711, 4.107409
662.6533, 5.110327
663.1354, 4.720900
663.6175, 4.006179
664.0996, 2.912392
664.5817, 1.558329
665.0638, 0.4928550
665.5460, 0.3398890
666.0281, 0.7282970
666.5102, 0.7798410
666.9923, 0.2440170
667.4744, 0.6724560
667.9565, 0.2214790
668.4387, 0.7485910
668.9208, 9.1418996E-02
669.4029, 0.4489430
669.8850, 0.5705630
670.3671, 1.5883001E-02
670.8492, 1.941001
671.3314, 4.442712
671.8135, 5.627808
672.2956, 4.328854
672.7777, 2.640604
673.2598, 1.439669
673.7419, 0.8270470
674.2241, 0.7817000
674.7062, 1.222540
675.1883, 1.690869
675.6704, 1.485395
676.1525, 0.7517610
676.6346, 0.8520700
677.1168, 2.056724
677.5989, 3.114321
678.0810, 3.249472
678.5631, 2.930432
679.0452, 3.193281
679.5273, 4.392720
680.0095, 4.933902
680.4916, 3.493432
680.9737, 2.029902
681.4558, 2.364769
681.9379, 3.817622
682.4200, 4.579811
682.9022, 3.983148
683.3843, 3.068817
683.8664, 3.284356
684.3485, 4.696935
684.8306, 5.832550
685.3127, 6.885795
685.7949, 7.236899
686.2770, 6.116211
686.7591, 4.550725
687.2412, 3.501394
687.7233, 3.057028
688.2054, 3.049294
688.6876, 4.052045
689.1697, 4.974529
689.6518, 4.277500
690.1339, 2.461814
690.6160, 1.177928
691.0981, 1.077332
691.5803, 1.986446
692.0624, 3.977657
692.5445, 7.421210
693.0266, 8.621250
693.5087, 5.846156
693.9908, 2.966354
694.4730, 0.4521740
694.9551, 1.124935
695.4372, 0.9763320
695.9193, 0.8651710
696.4014, 2.441753
696.8835, 2.343991
697.3657, 1.505237
697.8478, 1.093797
698.3299, 1.086305
698.8120, 1.277711
699.2941, 1.634325
699.7762, 1.820031
700.2584, 1.320973
700.7405, 3.9930001E-02
701.2226, 0.6843020
701.7047, 0.2826800
702.1868, 6.7540002E-03
702.6689, 0.3703030
703.1511, 0.7518640
703.6332, 0.4543860
704.1153, 0.5006980
704.5974, 1.436658
705.0795, 1.892840
705.5616, 2.086489
706.0438, 2.266701
706.5259, 2.455178
707.0080, 2.872869
707.4901, 3.628849
707.9722, 4.360285
708.4543, 4.660940
708.9365, 4.539112
709.4186, 4.574426
709.9007, 4.985722
710.3828, 5.249681
710.8649, 5.280301
711.3470, 5.136583
711.8292, 4.638960
712.3113, 3.979182
712.7934, 3.867965
713.2755, 5.013146
713.7576, 6.341899
714.2397, 6.111717
714.7219, 4.507427
715.2040, 2.569548
715.6861, 0.3182160
716.1682, 1.246811
716.6503, 1.144520
717.1324, 0.3307930
717.6146, 1.538105
718.0967, 2.369657
718.5788, 3.115521
719.0609, 4.399143
719.5430, 5.093787
720.0251, 3.775502
720.5073, 1.237865
720.9894, 0.3816660
721.4715, 2.6524000E-02
721.9536, 1.031951
722.4357, 0.3122810
722.9178, 1.691909
723.4000, 1.792667
723.8821, 0.5389850
724.3642, 3.191808
724.8463, 5.296792
725.3284, 6.678975
725.8105, 6.909735
726.2927, 5.440556
726.7748, 4.113073
727.2569, 2.470538
727.7390, 1.461897
728.2211, 2.160091
728.7032, 3.747216
729.1854, 4.967821
729.6675, 5.403942
730.1496, 5.379036
730.6317, 4.858768
731.1138, 4.147152
731.5959, 4.505826
732.0781, 6.020369
732.5602, 7.739408
733.0423, 9.496181
733.5244, 10.92533
734.0065, 11.44812
734.4886, 10.91328
734.9708, 10.26185
735.4529, 8.599225
735.9350, 7.881964
736.4171, 9.656416
736.8992, 12.21641
737.3813, 13.74524
737.8635, 13.94524
738.3456, 13.53141
738.8277, 12.73414
739.3098, 11.96740
739.7919, 12.29792
740.2740, 13.63516
740.7562, 14.45728
741.2383, 14.21688
741.7204, 14.07531
742.2025, 15.25646
742.6846, 17.58536
743.1667, 19.12434
743.6489, 19.44396
744.1310, 19.64518
744.6131, 19.90085
745.0952, 20.03366
745.5773, 19.42856
746.0594, 18.60589
746.5416, 19.06348
747.0237, 21.72881
747.5058, 24.76462
747.9879, 25.72269
748.4700, 25.14729
748.9521, 25.01807
749.4343, 25.54887
749.9164, 26.34751
750.3985, 27.30175
750.8806, 28.19835
751.3627, 28.51169
751.8448, 27.79602
752.3270, 27.64100
752.8091, 28.73169
753.2912, 29.50973
753.7733, 28.74896
754.2554, 27.57538
754.7375, 27.86161
755.2197, 29.92291
755.7018, 31.72730
756.1839, 31.20682
756.6660, 29.77202
757.1481, 29.99503
757.6302, 31.58373
758.1124, 32.62145
758.5945, 32.43935
759.0766, 32.01586
759.5587, 32.57608
760.0408, 34.08168
760.5229, 35.08141
761.0051, 35.18381
761.4872, 35.41442
761.9693, 35.64958
762.4514, 36.20671
762.9335, 37.82264
763.4156, 39.98782
763.8978, 41.24018
764.3799, 40.58515
764.8620, 39.74821
765.3441, 39.81303
765.8262, 40.59425
766.3083, 42.16028
766.7905, 44.35884
767.2726, 45.89274
767.7547, 45.71114
768.2368, 44.36743
768.7189, 42.92052
769.2010, 40.91177
769.6832, 40.59181
770.1653, 43.52739
770.6474, 45.94901
771.1295, 45.43982
771.6116, 44.01200
772.0938, 44.28136
772.5759, 46.67881
773.0580, 48.57150
773.5401, 48.48425
774.0222, 47.79252
774.5043, 47.61347
774.9865, 47.76683
775.4686, 47.68470
775.9507, 47.31648
776.4328, 46.77089
776.9149, 46.12782
777.3970, 45.56384
777.8792, 46.22527
778.3613, 48.50535
778.8434, 49.78642
779.3255, 49.09083
779.8076, 47.82596
780.2897, 47.36439
780.7719, 47.41474
781.2540, 47.05516
781.7361, 45.77224
782.2182, 44.97437
782.7003, 45.18266
783.1824, 45.85109
783.6646, 46.87738
784.1467, 47.95012
784.6288, 48.45191
785.1109, 48.10838
785.5930, 47.42020
786.0751, 46.97122
786.5573, 46.68986
787.0394, 46.13639
787.5215, 45.27636
788.0036, 45.06054
788.4857, 46.11158
788.9678, 47.63150
789.4500, 48.10644
789.9321, 47.38821
790.4142, 47.04893
790.8963, 47.58573
791.3784, 47.82678
791.8605, 47.36581
792.3427, 46.61102
792.8248, 45.88605
793.3069, 45.19121
793.7890, 44.36952
794.2711, 43.40565
794.7532, 42.20499
795.2354, 40.42643
795.7175, 38.40308
796.1996, 37.00249
796.6817, 36.24551
797.1638, 35.17727
797.6459, 33.10159
798.1281, 30.83391
798.6102, 29.75171
799.0923, 30.63149
799.5744, 30.07862
800.0565, 27.13197
800.5386, 24.48066
801.0208, 23.90409
801.5029, 23.91339
801.9850, 22.56537
802.4671, 19.70712
802.9492, 17.44846
803.4313, 16.75098
803.9135, 16.50769
804.3956, 16.32230
804.8777, 15.90998
805.3598, 14.82699
805.8419, 13.25480
806.3240, 11.64914
806.8062, 10.34510
807.2883, 9.261334
807.7704, 8.053896
808.2525, 6.753357
808.7346, 6.571088
809.2167, 8.010568
809.6989, 9.065440
810.1810, 8.263760
810.6631, 6.268825
811.1452, 5.117133
811.6273, 5.415670
812.1094, 5.354687
812.5916, 4.924654
813.0737, 4.162136
813.5558, 2.623341
814.0379, 1.000470
814.5200, 0.2495760
815.0021, 0.5008450
815.4843, 0.9521520
815.9664, 1.068279
816.4485, 1.168322
816.9306, 1.936600
817.4127, 2.894946
817.8948, 2.773546
818.3770, 1.368044
818.8591, 0.4902500
819.3412, 0.7455510
819.8233, 0.4244250
820.3054, 0.6336720
820.7875, 1.848222
821.2697, 3.572440
821.7518, 0.6776480
822.2339, 0.8049710
822.7160, 0.3780120
823.1981, 2.914487
823.6802, 2.790427
824.1624, 0.6514400
824.6445, 2.008169
825.1266, 0.7018360
825.6087, 1.206850
826.0908, 1.921320
826.5729, 1.301011
827.0551, 0.9650610
827.5372, 1.179653
828.0193, 1.104387
828.5014, 9.0815000E-02
828.9835, 0.7536770
829.4656, 7.1558997E-02
829.9478, 0.1928500
830.4299, 0.9381710
830.9120, 2.3900000E-04
831.3941, 1.211264
831.8762, 1.801372
832.3583, 1.556664
832.8404, 0.7549320
833.3225, 0.9652120
833.8046, 9.1054998E-02
834.2867, 0.7400820
834.7689, 0.9515890
835.2510, 0.6345730
835.7331, 2.0236000E-02
836.2152, 0.5434400
836.6973, 0.9357940
837.1794, 6.0389001E-02
837.6616, 2.925061
838.1437, 5.030675
838.6258, 4.003224
839.1079, 1.635092
839.5900, 0.3145460
840.0721, 0.2948720
840.5543, 0.6018250
841.0364, 0.6390380
841.5185, 0.5913470
842.0006, 0.7948900
842.4827, 1.192438
842.9648, 1.307793
843.4470, 1.051599
843.9291, 1.351528
844.4112, 2.968445
844.8933, 4.681400
845.3754, 4.238867
845.8575, 1.090859
846.3397, 0.7426040
846.8218, 0.2348280
847.3039, 0.2130870
847.7860, 5.6478001E-02
848.2681, 0.4107760
848.7502, 0.2965270
849.2324, 0.2219350
849.7145, 0.6851480
850.1966, 0.6433830
850.6787, 1.095175
851.1608, 3.661740
851.6429, 6.289062
852.1251, 6.200042
852.6072, 4.028775
853.0893, 2.364007
853.5714, 2.312185
854.0535, 2.535967
854.5356, 0.8220950
855.0178, 1.393348
855.4999, 0.5741890
855.9820, 0.8991010
856.4641, 2.577131
856.9462, 1.457888
857.4283, 0.4789530
857.9105, 9.7067997E-02
858.3926, 0.1369200
858.8747, 0.3975410
859.3568, 0.2452780
859.8389, 0.2053250
860.3210, 0.1213000
860.8032, 0.2184550
861.2853, 5.1298000E-02
861.7674, 1.044185
862.2495, 0.1471450
862.7316, 1.864017
863.2137, 4.778369
863.6959, 5.815248
864.1780, 5.813829
864.6601, 4.817567
865.1422, 3.469894
865.6243, 2.961731
866.1064, 3.340989
866.5886, 3.363649
867.0707, 1.913928
867.5528, 0.1083430
868.0349, 0.3133280
868.5170, 2.145035
868.9991, 3.185695
869.4813, 3.128484
869.9634, 2.675063
870.4455, 2.116327
870.9276, 1.633183
871.4097, 1.608078
871.8918, 2.169247
872.3740, 2.323587
872.8561, 1.726616
873.3382, 1.299232
873.8203, 0.8763380
874.3024, 1.056626
874.7845, 3.316903
875.2667, 6.835697
875.7488, 7.840000
876.2309, 4.282995
876.7130, 0.4040970
877.1951, 1.366328
877.6772, 3.845929
878.1594, 4.643049
878.6415, 4.082814
879.1236, 2.340982
879.6057, 0.4166760
880.0878, 1.065361
880.5699, 2.337775
881.0521, 2.633477
881.5342, 1.698760
882.0163, 5.0510000E-03
882.4984, 0.1382330
882.9805, 1.980085
883.4626, 5.018733
883.9448, 8.110662
884.4269, 10.71126
884.9090, 10.81636
885.3911, 7.749536
885.8732, 6.279483
886.3553, 7.443225
886.8375, 8.313505
887.3196, 7.749050
887.8017, 6.148965
888.2838, 3.583223
888.7659, 3.8940001E-03
889.2480, 0.7911290
889.7302, 0.7349310
890.2123, 2.585765
890.6944, 2.362629
891.1765, 1.579249
891.6586, 1.540042
892.1407, 2.121742
892.6229, 2.770288
893.1050, 3.344615
893.5871, 3.932219
894.0692, 5.155382
894.5513, 5.942838
895.0334, 4.430621
895.5156, 1.565219
895.9977, 4.3141000E-02
896.4798, 0.2687140
896.9619, 1.054689
897.4440, 1.062446
897.9261, 0.5988120
898.4083, 0.1834510
898.8904, 0.1224050
899.3725, 0.7461010
899.8546, 3.098801
900.3367, 4.867664
900.8188, 4.631981
901.3010, 3.578270
901.7831, 4.163628
902.2652, 6.872185
902.7473, 8.106102
903.2294, 6.815575
903.7115, 5.886407
904.1937, 6.277853
904.6758, 7.133170
905.1579, 7.639077
905.6400, 7.800910
906.1221, 7.853918
906.6042, 7.343388
907.0864, 7.812790
907.5685, 11.37366
908.0506, 14.23169
908.5327, 13.02845
909.0148, 9.702860
909.4969, 7.304735
909.9791, 6.599203
910.4612, 6.800776
910.9433, 7.643930
911.4254, 8.891685
911.9075, 10.90778
912.3896, 12.92021
912.8718, 13.11983
913.3539, 11.41619
913.8360, 9.851323
914.3181, 9.228665
914.8002, 9.474225
915.2823, 10.99821
915.7645, 13.50135
916.2466, 14.01224
916.7287, 12.42144
917.2108, 10.25587
917.6929, 7.678767
918.1750, 5.910359
918.6572, 6.503270
919.1393, 8.817730
919.6214, 9.168340
920.1035, 6.607324
920.5856, 4.817952
921.0677, 3.723115
921.5499, 3.444705
922.0320, 4.833791
922.5141, 6.656616
922.9962, 7.159085
923.4783, 6.216567
923.9604, 5.495141
924.4426, 5.277642
924.9247, 5.223769
925.4068, 4.943939
925.8889, 4.991095
926.3710, 6.369605
926.8531, 8.355078
927.3353, 9.125176
927.8174, 7.984247
928.2995, 6.321482
928.7816, 4.650697
929.2637, 3.288171
929.7458, 2.651874
930.2280, 2.559864
930.7101, 2.652398
931.1922, 2.834263
931.6743, 3.083172
932.1564, 3.320026
932.6385, 3.928265
933.1207, 6.456096
933.6028, 9.952715
934.0849, 9.472338
934.5670, 4.790191
935.0491, 1.165166
935.5313, 1.011016
936.0134, 2.571087
936.4955, 3.841781
936.9776, 4.844028
937.4597, 5.008265
937.9418, 4.176135
938.4240, 3.036017
938.9061, 1.222613
939.3882, 0.1361290
939.8703, 1.123628
940.3524, 3.105065
940.8345, 3.630251
941.3167, 2.158303
941.7988, 1.009288
942.2809, 0.1064640
942.7630, 0.5457850
943.2451, 4.1386001E-02
943.7272, 1.089835
944.2094, 3.634937
944.6915, 6.598732
945.1736, 6.528469
945.6557, 0.9482260
946.1378, 1.722182
946.6199, 1.311156
947.1021, 1.411419
947.5842, 2.906313
948.0663, 3.295927
948.5484, 2.941164
949.0305, 2.135600
949.5126, 1.819330
949.9948, 2.955093
950.4769, 4.017327
950.9590, 2.879301
951.4411, 0.9415870
951.9232, 0.6154640
952.4053, 1.678323
952.8875, 2.459490
953.3696, 2.390622
953.8517, 2.353842
954.3338, 3.570758
954.8159, 5.415899
955.2980, 6.717951
955.7802, 7.504398
956.2623, 7.143536
956.7444, 5.582900
957.2265, 4.619032
957.7086, 5.240335
958.1907, 6.906181
958.6729, 8.714959
959.1550, 10.68609
959.6371, 11.65469
960.1192, 11.42194
960.6013, 10.87246
961.0834, 9.825294
961.5656, 9.462065
962.0477, 11.28056
962.5298, 14.32162
963.0119, 15.13951
963.4940, 12.43506
963.9761, 10.81421
964.4583, 11.08082
964.9404, 11.47288
965.4225, 10.88585
965.9046, 10.51136
966.3867, 11.67227
966.8688, 14.13134
967.3510, 16.01328
967.8331, 16.89340
968.3152, 17.47732
968.7973, 17.92859
969.2794, 18.11888
969.7615, 18.03603
970.2437, 17.63512
970.7258, 16.11624
971.2079, 13.71818
971.6900, 13.07089
972.1721, 17.16423
972.6542, 20.85915
973.1364, 20.03484
973.6185, 17.78065
974.1006, 17.30065
974.5827, 18.42589
975.0648, 20.24685
975.5469, 22.33838
976.0291, 23.41171
976.5112, 21.51272
976.9933, 18.86090
977.4754, 18.66304
977.9575, 20.13278
978.4396, 21.94530
978.9218, 23.58977
979.4039, 23.62755
979.8860, 21.31496
980.3681, 18.91794
980.8502, 20.12885
981.3323, 23.57927
981.8145, 23.83178
982.2966, 21.37832
982.7787, 20.47107
983.2608, 22.05118
983.7429, 23.73108
984.2250, 23.93627
984.7072, 23.03371
985.1893, 21.58827
985.6714, 19.57447
986.1535, 17.95024
986.6356, 16.78071
987.1177, 15.45880
987.5999, 13.52413
988.0820, 12.30212
988.5641, 13.14999
989.0462, 15.42739
989.5283, 16.98450
990.0104, 17.71759
990.4926, 17.70954
990.9747, 16.54549
991.4568, 15.47476
991.9389, 15.12624
992.4210, 14.78718
992.9031, 13.35002
993.3853, 11.15534
993.8674, 10.55387
994.3495, 13.50061
994.8316, 14.73213
995.3137, 12.99486
995.7958, 10.91341
996.2780, 9.136085
996.7601, 7.835799
997.2422, 7.601370
997.7243, 8.199024
998.2064, 7.688387
998.6885, 3.977601
999.1707, 1.888746
999.6528, 4.137911
1000.135, 6.801547
1000.617, 7.300608
1001.099, 6.640819
1001.581, 6.559099
1002.063, 7.196780
1002.545, 7.160122
1003.028, 5.317286
1003.510, 3.467406
1003.992, 2.516251
1004.474, 2.031278
1004.956, 1.536784
1005.438, 1.057769
1005.920, 0.9700880
1006.402, 1.309628
1006.885, 1.431308
1007.367, 0.4565810
1007.849, 0.3295140
1008.331, 0.8715130
1008.813, 2.679381
1009.295, 3.202430
1009.777, 2.488567
1010.259, 1.048656
1010.741, 0.8151790
1011.224, 0.2845780
1011.706, 0.9608120
1012.188, 0.7106310
1012.670, 0.2641760
1013.152, 0.8317330
1013.634, 3.8964000E-02
1014.116, 0.3168190
1014.598, 0.9320930
1015.081, 0.4263330
1015.563, 1.659961
1016.045, 2.047597
1016.527, 2.905404
1017.009, 2.466471
1017.491, 3.362210
1017.973, 3.483365
1018.455, 2.713055
1018.937, 1.693857
1019.420, 0.7227660
1019.902, 0.1131360
1020.384, 0.6037660
1020.866, 1.720990
1021.348, 0.5991480
1021.830, 0.6694510
1022.312, 1.912915
1022.794, 0.3649400
1023.276, 0.5859240
1023.759, 0.1496200
1024.241, 0.4430460
1024.723, 0.6473300
1025.205, 0.7547660
1025.687, 0.4593830
1026.169, 0.4010830
1026.651, 3.8343001E-02
1027.133, 0.4610970
1027.616, 1.932496
1028.098, 0.6126340
1028.580, 0.5343480
1029.062, 3.516485
1029.544, 6.553124
1030.026, 6.779763
1030.508, 2.908744
1030.990, 0.9948120
1031.473, 2.969243
1031.955, 5.172244
1032.437, 5.446954
1032.919, 4.279823
1033.401, 2.303358
1033.883, 0.7448930
1034.365, 0.1690940
1034.847, 0.8453870
1035.329, 2.895381
1035.812, 3.852164
1036.294, 4.328221
1036.776, 4.598763
1037.258, 4.742706
1037.740, 5.012081
1038.222, 5.557948
1038.704, 5.015268
1039.186, 1.945171
1039.668, 0.1342760
1040.151, 0.8594410
1040.633, 2.231627
1041.115, 3.675108
1041.597, 4.839246
1042.079, 4.708730
1042.561, 2.861421
1043.043, 1.799486
1043.525, 2.151346
1044.008, 2.606591
1044.490, 3.161354
1044.972, 3.347763
1045.454, 2.505651
1045.936, 1.172679
1046.418, 0.2519990
1046.900, 0.2525010
1047.382, 0.6585600
1047.865, 4.769277
1048.347, 8.015006
1048.829, 9.253946
1049.311, 9.550678
1049.793, 9.113114
1050.275, 8.403120
1050.757, 8.230080
1051.239, 8.860077
1051.721, 8.569782
1052.203, 5.643620
1052.686, 3.697191
1053.168, 4.833644
1053.650, 6.202394
1054.132, 5.335975
1054.614, 3.642956
1055.096, 3.768925
1055.578, 5.983673
1056.060, 7.749444
1056.543, 8.007642
1057.025, 8.130260
1057.507, 8.563258
1057.989, 9.087019
1058.471, 9.697292
1058.953, 10.13885
1059.435, 10.06672
1059.917, 9.520045
1060.400, 9.317597
1060.882, 10.51908
1061.364, 11.00356
1061.846, 9.058116
1062.328, 7.105034
1062.810, 7.373693
1063.292, 8.622844
1063.774, 8.470602
1064.256, 6.839602
1064.739, 6.210034
1065.221, 8.223745
1065.703, 10.30214
1066.185, 11.98187
1066.667, 12.74754
1067.149, 11.42526
1067.631, 9.428608
1068.113, 9.155109
1068.595, 10.41177
1069.078, 10.33931
1069.560, 6.709970
1070.042, 4.169611
1070.524, 6.157036
1071.006, 8.365529
1071.488, 7.540748
1071.970, 5.378439
1072.452, 4.213458
1072.935, 4.346316
1073.417, 4.915789
1073.899, 5.919435
1074.381, 6.512281
1074.863, 5.997005
1075.345, 5.267160
1075.827, 4.766046
1076.309, 4.517405
1076.792, 4.849058
1077.274, 5.422141
1077.756, 4.896878
1078.238, 2.427063
1078.720, 0.9067460
1079.202, 2.424855
1079.684, 4.443306
1080.166, 5.632513
1080.648, 6.396526
1081.130, 7.009549
1081.613, 7.548695
1082.095, 8.018347
1082.577, 8.493813
1083.059, 8.359179
1083.541, 7.044656
1084.023, 5.497439
1084.505, 3.505436
1084.987, 2.036287
1085.469, 2.386903
1085.952, 4.017310
1086.434, 5.401138
1086.916, 6.144289
1087.398, 6.738944
1087.880, 7.964592
1088.362, 8.346437
1088.844, 5.792864
1089.326, 3.367538
1089.809, 4.578697
1090.291, 7.491225
1090.773, 8.078203
1091.255, 5.812290
1091.737, 4.285001
1092.219, 5.438941
1092.701, 6.922411
1093.183, 8.953451
1093.666, 9.749711
1094.148, 6.745518
1094.630, 2.383439
1095.112, 0.1869150
1095.594, 0.3842770
1096.076, 1.036556
1096.558, 2.029255
1097.040, 2.534254
1097.522, 2.166963
1098.005, 1.372767
1098.487, 0.3170240
1098.969, 0.4863420
1099.451, 0.9789600
1099.933, 0.5862140
1100.415, 1.336300
1100.897, 8.2094997E-02
1101.379, 1.053118
1101.861, 0.2766200
1102.344, 0.1133320
1102.826, 0.8757890
1103.308, 0.4424380
1103.790, 1.195740
1104.272, 2.776211
1104.754, 2.843456
1105.236, 0.9329970
1105.718, 0.5640030
1106.201, 1.162971
1106.683, 1.397727
1107.165, 1.199605
1107.647, 1.366895
1108.129, 0.1858290
1108.611, 2.305017
1109.093, 3.777051
1109.575, 4.535467
1110.057, 4.511050
1110.540, 3.199776
1111.022, 1.838217
1111.504, 0.6365060
1111.986, 0.6197290
1112.468, 0.7277160
1112.950, 0.9630640
1113.432, 1.311617
1113.914, 0.4201390
1114.396, 2.3709999E-03
1114.879, 0.9040850
1115.361, 0.8092170
1115.843, 1.153888
1116.325, 0.5853820
1116.807, 0.1676260
1117.289, 0.4532560
1117.771, 0.5889800
1118.253, 0.6724310
1118.736, 1.172843
1119.218, 2.596456
1119.700, 2.744885
1120.182, 1.181743
1120.664, 0.9174610
1121.146, 0.5856490
1121.628, 2.383967
1122.110, 0.4564640
1122.593, 1.673313
1123.075, 4.120825
1123.557, 3.739209
1124.039, 3.458529
1124.521, 3.363206
1125.003, 3.034663
1125.485, 2.355346
1125.967, 1.458863
1126.449, 8.6301997E-02
1126.932, 0.5810220
1127.414, 1.358721
1127.896, 5.326362
1128.378, 7.392029
1128.860, 7.393867
1129.342, 6.886056
1129.824, 5.853959
1130.306, 5.416330
1130.788, 6.024004
1131.271, 7.109356
1131.753, 8.218406
1132.235, 9.200396
1132.717, 9.730999
1133.199, 9.788843
1133.681, 8.640286
1134.163, 6.369812
1134.645, 5.605713
1135.128, 6.941679
1135.610, 8.939248
1136.092, 10.75864
1136.574, 12.22136
1137.056, 13.10839
1137.538, 13.44546
1138.020, 12.79887
1138.502, 11.64011
1138.984, 12.21665
1139.467, 14.59252
1139.949, 17.46696
1140.431, 20.22913
1140.913, 21.73572
1141.395, 20.39965
1141.877, 18.13511
1142.359, 18.13853
1142.841, 19.48057
1143.323, 20.35708
1143.806, 20.80857
1144.288, 21.22222
1144.770, 21.82006
1145.252, 23.17103
1145.734, 25.71585
1146.216, 28.58150
1146.698, 31.78270
1147.180, 34.05107
1147.663, 33.26429
1148.145, 30.93173
1148.627, 28.95978
1149.109, 27.85873
1149.591, 28.15285
1150.073, 30.05454
1150.555, 31.98948
1151.037, 32.81264
1151.520, 33.63882
1152.002, 35.19020
1152.484, 37.04869
1152.966, 38.97470
1153.448, 40.85076
1153.930, 42.65694
1154.412, 44.31041
1154.894, 45.23411
1155.376, 44.82896
1155.859, 44.49772
1156.341, 44.45872
1156.823, 44.74789
1157.305, 45.90459
1157.787, 47.20586
1158.269, 47.52617
1158.751, 47.15116
1159.233, 47.26135
1159.715, 48.33311
1160.198, 48.84586
1160.680, 47.81231
1161.162, 47.61589
1161.644, 48.85780
1162.126, 50.70789
1162.608, 53.31097
1163.090, 55.70895
1163.572, 56.30434
1164.055, 55.19973
1164.537, 54.33694
1165.019, 53.39045
1165.501, 53.94972
1165.983, 56.69828
1166.465, 59.48164
1166.947, 61.71050
1167.429, 63.37053
1167.911, 64.43150
1168.394, 64.99738
1168.876, 65.20856
1169.358, 64.89808
1169.840, 65.13292
1170.322, 66.06976
1170.804, 66.83833
1171.286, 67.19206
1171.768, 67.86874
1172.250, 69.28470
1172.733, 70.99839
1173.215, 72.08839
1173.697, 73.08674
1174.179, 76.15214
1174.661, 79.96581
1175.143, 79.29572
1175.625, 75.22065
1176.107, 73.91138
1176.590, 76.76472
1177.072, 79.65585
1177.554, 79.71264
1178.036, 79.03830
1178.518, 79.52898
1179.000, 80.33646
1179.482, 80.73849
1179.964, 81.29758
1180.447, 83.06503
1180.929, 85.30365
1181.411, 86.14294
1181.893, 84.89076
1182.375, 83.02271
1182.857, 81.12724
1183.339, 79.46632
1183.821, 78.12100
1184.303, 77.09807
1184.786, 76.20807
1185.268, 75.80717
1185.750, 76.72909
1186.232, 78.58484
1186.714, 79.14872
1187.196, 77.20742
1187.678, 76.26028
1188.160, 77.54189
1188.642, 79.01085
1189.125, 80.52119
1189.607, 81.52299
1190.089, 81.48571
1190.571, 80.84027
1191.053, 80.44247
1191.535, 80.27704
1192.017, 78.73695
1192.499, 74.83012
1192.982, 72.81360
1193.464, 73.58723
1193.946, 74.30453
1194.428, 74.10306
1194.910, 72.99121
1195.392, 70.74629
1195.874, 68.15724
1196.356, 67.22260
1196.839, 67.79053
1197.321, 67.82262
1197.803, 67.34199
1198.285, 67.10032
1198.767, 67.06596
1199.249, 64.98344
1199.731, 59.89743
1200.213, 55.18020
1200.695, 54.31655
1201.177, 55.48305
1201.660, 56.28518
1202.142, 56.61200
1202.624, 56.21676
1203.106, 55.19022
1203.588, 53.63490
1204.070, 51.68482
1204.552, 49.64227
1205.034, 47.62251
1205.517, 45.78549
1205.999, 44.56490
1206.481, 43.18860
1206.963, 40.78783
1207.445, 38.27464
1207.927, 36.14975
1208.409, 34.74561
1208.891, 35.15211
1209.374, 37.07579
1209.856, 37.06846
1210.338, 32.77378
1210.820, 29.83899
1211.302, 30.38756
1211.784, 30.75802
1212.266, 29.60502
1212.748, 27.92584
1213.230, 26.50796
1213.713, 24.92736
1214.195, 22.05056
1214.677, 20.99426
1215.159, 19.69929
1215.641, 17.76555
1216.123, 18.06295
1216.605, 16.21955
1217.087, 15.46563
1217.569, 17.27144
1218.052, 18.29681
1218.534, 15.42647
1219.016, 10.70657
1219.498, 8.084517
1219.980, 7.269079
1220.462, 7.423800
1220.944, 8.193991
1221.426, 7.962710
1221.909, 6.735168
1222.391, 5.727418
1222.873, 5.396608
1223.355, 5.371988
1223.837, 5.587613
1224.319, 5.497261
1224.801, 4.514631
1225.283, 2.857802
1225.766, 0.2562890
1226.248, 0.9567870
1226.730, 1.587558
1227.212, 0.4978710
1227.694, 0.6277240
1228.176, 0.6677960
1228.658, 1.714021
1229.140, 1.419520
1229.622, 0.1720960
1230.104, 1.552099
1230.587, 0.2994000
1231.069, 0.5886370
1231.551, 0.7910610
1232.033, 0.3860920
1232.515, 0.2762720
1232.997, 0.3966160
1233.479, 0.6278760
1233.961, 1.593038
1234.444, 1.277082
1234.926, 0.4115620
1235.408, 0.4974950
1235.890, 0.9741690
1236.372, 0.9778170
1236.854, 3.310976
1237.336, 3.774758
1237.818, 2.813376
1238.301, 0.9795650
1238.783, 1.204036
1239.265, 1.238097
1239.747, 0.2839380
1240.229, 0.9260770
1240.711, 1.812356
1241.193, 2.675127
1241.675, 3.647503
1242.157, 4.550779
1242.640, 5.360745
1243.122, 5.878701
1243.604, 5.503899
1244.086, 5.190710
1244.568, 5.937170
1245.050, 7.350786
1245.532, 8.795614
1246.014, 10.25594
1246.496, 12.10086
1246.979, 14.63860
1247.461, 16.40227
1247.943, 16.80779
1248.425, 16.95465
1248.907, 17.58178
1249.389, 17.13055
1249.871, 13.83157
1250.353, 10.58769
1250.836, 10.75472
1251.318, 13.46180
1251.800, 15.87850
1252.282, 17.98642
1252.764, 17.88693
1253.246, 15.61879
1253.728, 15.11708
1254.210, 16.98559
1254.693, 19.47870
1255.175, 21.75218
1255.657, 23.54040
1256.139, 24.32786
1256.621, 25.09184
1257.103, 22.01296
1257.585, 19.06194
1258.067, 19.96623
1258.549, 22.83289
1259.031, 24.73899
1259.514, 25.16028
1259.996, 24.87997
1260.478, 24.70252
1260.960, 23.95265
1261.442, 23.15889
1261.924, 21.79091
1262.406, 18.29962
1262.888, 15.91999
1263.371, 15.17774
1263.853, 15.59832
1264.335, 17.63141
1264.817, 20.00843
1265.299, 19.79865
1265.781, 16.88280
1266.263, 14.67438
1266.745, 12.97826
1267.228, 13.01767
1267.710, 15.21581
1268.192, 15.64799
1268.674, 13.17074
1269.156, 10.84175
1269.638, 11.05838
1270.120, 12.00711
1270.602, 9.841028
1271.084, 10.55231
1271.567, 7.081210
1272.049, 9.749616
1272.531, 11.04101
1273.013, 10.68319
1273.495, 9.284154
1273.977, 7.169847
1274.459, 4.779210
1274.941, 1.938482
1275.423, 0.4600390
1275.906, 2.606228
1276.388, 4.451179
1276.870, 3.823453
1277.352, 2.626181
1277.834, 2.334973
1278.316, 2.583049
1278.798, 2.704140
1279.280, 2.847529
1279.763, 3.119849
1280.245, 3.427003
1280.727, 2.414046
1281.209, 0.2972720
1281.691, 1.6667999E-02
1282.173, 0.1769540
1282.655, 1.486814
1283.137, 3.908191
1283.620, 4.930569
1284.102, 4.555125
1284.584, 3.105960
1285.066, 0.0000000E+00
##END=



