##NAMES=Bobjonesite
##RRUFFID=R060577
##IDEAL CHEMISTRY=V^4+^OSO_4_&#183;3H_2_O
##LOCALITY=Petrified log in the North Mesa 5 mine, Temple Mountain, Emery County, Utah, USA
##OWNER=RRUFF
##SOURCE=Michael Scott
##DESCRIPTION=Blue tabular crystals
##STATUS=The identification of this mineral has been confirmed by single-crystal X-ray diffraction.
##URL=rruff.info/R060577
89.78320, 0.0000000E+00
90.26532, 1.613525
90.74744, 17.03955
91.22955, 78.54688
91.71167, 162.9678
92.19379, 250.3308
92.67590, 341.0330
93.15802, 430.7083
93.64014, 511.6345
94.12225, 593.1123
94.60437, 689.1350
95.08649, 805.1157
95.56860, 930.5735
96.05072, 1051.803
96.53284, 1173.103
97.01495, 1281.582
97.49707, 1365.805
97.97919, 1430.526
98.46130, 1463.555
98.94342, 1438.479
99.42554, 1352.610
99.90765, 1246.153
100.3898, 1117.705
100.8719, 972.1631
101.3540, 820.3894
101.8361, 663.0874
102.3182, 519.7550
102.8004, 396.0002
103.2825, 293.3481
103.7646, 206.2965
104.2467, 137.1675
104.7288, 83.82581
105.2109, 42.56555
105.6931, 13.89819
106.1752, 5.344238
106.6573, 16.64551
107.1394, 17.26611
107.6215, 14.61377
108.1036, 5.261353
108.5858, 8.701538
109.0679, 15.10339
109.5500, 7.301147
110.0321, 2.770142
110.5142, 8.607056
110.9963, 11.76318
111.4785, 9.904663
111.9606, 1.617554
112.4427, 12.63232
112.9248, 28.76538
113.4069, 45.77490
113.8890, 64.63892
114.3712, 86.20605
114.8533, 108.6694
115.3354, 134.9719
115.8175, 167.1257
116.2996, 206.1707
116.7817, 245.7844
117.2639, 282.1556
117.7460, 317.9613
118.2281, 357.0527
118.7102, 404.5634
119.1923, 453.0074
119.6744, 497.3733
120.1566, 536.6047
120.6387, 574.7448
121.1208, 617.8523
121.6029, 661.9790
122.0850, 698.3073
122.5671, 725.8638
123.0493, 741.8141
123.5314, 743.5361
124.0135, 731.0715
124.4956, 704.2637
124.9777, 656.5646
125.4598, 592.0499
125.9420, 526.6329
126.4241, 466.9993
126.9062, 414.3811
127.3883, 370.5344
127.8704, 336.9565
128.3525, 312.2466
128.8347, 294.5332
129.3168, 283.7689
129.7989, 276.9517
130.2810, 272.5859
130.7631, 271.0430
131.2452, 270.2582
131.7274, 272.5591
132.2095, 275.7371
132.6916, 271.1777
133.1737, 258.2137
133.6558, 243.1611
134.1379, 231.6735
134.6201, 223.7151
135.1022, 215.1223
135.5843, 204.7473
136.0664, 192.8491
136.5485, 180.4586
137.0306, 167.1642
137.5128, 154.2098
137.9949, 142.3868
138.4770, 131.4434
138.9591, 122.7374
139.4412, 117.0629
139.9233, 114.6813
140.4055, 112.4014
140.8876, 110.7469
141.3697, 108.5752
141.8518, 103.5647
142.3339, 94.24939
142.8160, 85.38635
143.2982, 78.46936
143.7803, 73.46191
144.2624, 70.82397
144.7445, 71.31213
145.2266, 73.96643
145.7087, 76.37341
146.1909, 77.32068
146.6730, 79.64331
147.1551, 84.69421
147.6372, 100.1017
148.1193, 114.3098
148.6014, 127.3293
149.0836, 139.2228
149.5657, 150.8875
150.0478, 161.7357
150.5299, 172.6334
151.0120, 184.0159
151.4941, 197.5736
151.9763, 209.4890
152.4584, 220.7029
152.9405, 230.5970
153.4226, 236.3776
153.9047, 236.3262
154.3868, 233.1029
154.8690, 228.1285
155.3511, 221.8884
155.8332, 213.4482
156.3153, 203.2727
156.7974, 191.1869
157.2795, 175.4351
157.7617, 150.7980
158.2438, 124.8953
158.7259, 103.2710
159.2080, 91.22827
159.6901, 79.91394
160.1722, 65.90771
160.6544, 49.42847
161.1365, 35.29016
161.6186, 25.24854
162.1007, 17.98523
162.5828, 11.83301
163.0649, 7.410767
163.5471, 3.050903
164.0292, 1.909180
164.5113, 7.354858
164.9934, 13.66956
165.4755, 22.84521
165.9576, 32.18518
166.4398, 38.69666
166.9219, 40.64050
167.4040, 41.20972
167.8861, 42.63867
168.3682, 44.96667
168.8503, 46.76611
169.3325, 46.11316
169.8146, 43.73657
170.2967, 41.42981
170.7788, 41.53186
171.2609, 41.66138
171.7430, 39.19092
172.2252, 33.70996
172.7073, 27.99646
173.1894, 24.60291
173.6715, 22.69409
174.1536, 20.52527
174.6357, 17.36572
175.1179, 13.47278
175.6000, 9.069702
176.0821, 4.182373
176.5642, 1.067139
177.0463, 6.760376
177.5284, 12.78247
178.0106, 18.67126
178.4927, 23.44812
178.9748, 28.13306
179.4569, 34.32837
179.9390, 42.32092
180.4211, 51.57507
180.9033, 61.75696
181.3854, 72.88342
181.8675, 84.67651
182.3496, 97.15222
182.8317, 110.1680
183.3138, 124.1235
183.7960, 138.9884
184.2781, 154.6013
184.7602, 170.4435
185.2423, 186.6552
185.7244, 203.1669
186.2065, 219.9871
186.6887, 237.1636
187.1708, 255.3477
187.6529, 274.7898
188.1350, 294.7588
188.6171, 313.4532
189.0992, 331.0791
189.5814, 348.5468
190.0635, 365.9927
190.5456, 383.7882
191.0277, 402.7904
191.5098, 423.3158
191.9919, 444.9774
192.4741, 466.2367
192.9562, 486.9308
193.4383, 508.6870
193.9204, 531.8191
194.4025, 556.4130
194.8846, 583.9871
195.3668, 614.7357
195.8489, 648.5372
196.3310, 685.4193
196.8131, 725.5300
197.2952, 767.4446
197.7773, 810.7996
198.2595, 855.4028
198.7416, 901.6031
199.2237, 948.9294
199.7058, 997.7139
200.1879, 1048.852
200.6700, 1103.483
201.1522, 1157.688
201.6343, 1210.418
202.1164, 1262.248
202.5985, 1307.292
203.0806, 1344.481
203.5627, 1374.231
204.0449, 1397.957
204.5270, 1416.548
205.0091, 1426.144
205.4912, 1423.834
205.9733, 1409.085
206.4554, 1384.954
206.9376, 1349.948
207.4197, 1306.396
207.9018, 1261.189
208.3839, 1213.670
208.8660, 1166.020
209.3481, 1119.407
209.8303, 1072.664
210.3124, 1031.300
210.7945, 997.0154
211.2766, 968.5557
211.7587, 939.5566
212.2408, 909.7053
212.7230, 879.8523
213.2051, 850.8154
213.6872, 823.7037
214.1693, 793.1166
214.6514, 757.7859
215.1335, 718.4141
215.6157, 680.3450
216.0978, 643.8765
216.5799, 607.4700
217.0620, 569.5029
217.5441, 528.8118
218.0262, 489.4120
218.5084, 450.7339
218.9905, 413.1241
219.4726, 380.3456
219.9547, 352.8943
220.4368, 328.6729
220.9189, 306.6432
221.4011, 286.5312
221.8832, 268.5408
222.3653, 252.4440
222.8474, 238.4204
223.3295, 226.7931
223.8116, 218.1576
224.2938, 211.3420
224.7759, 205.9398
225.2580, 202.1056
225.7401, 199.6383
226.2222, 198.8096
226.7043, 199.3120
227.1865, 200.1248
227.6686, 201.3635
228.1507, 202.7710
228.6328, 204.0277
229.1149, 205.1874
229.5970, 206.3275
230.0792, 208.3802
230.5613, 210.6182
231.0434, 209.5040
231.5255, 203.3009
232.0076, 196.1313
232.4897, 190.2909
232.9719, 186.4371
233.4540, 182.4922
233.9361, 177.9166
234.4182, 173.1925
234.9003, 169.8357
235.3824, 167.5154
235.8646, 167.0046
236.3467, 168.8042
236.8288, 173.6661
237.3109, 179.2036
237.7930, 185.6923
238.2751, 192.7640
238.7573, 198.8411
239.2394, 202.2632
239.7215, 207.0013
240.2036, 215.2509
240.6857, 229.3962
241.1678, 241.5779
241.6500, 251.3834
242.1321, 259.2665
242.6142, 266.5481
243.0963, 273.2893
243.5784, 279.2672
244.0605, 284.5635
244.5427, 290.0787
245.0248, 292.6327
245.5069, 291.3777
245.9890, 287.5162
246.4711, 283.7810
246.9532, 280.8964
247.4354, 276.9287
247.9175, 270.6997
248.3996, 260.6675
248.8817, 253.3638
249.3638, 249.2395
249.8459, 247.6235
250.3281, 247.3206
250.8102, 248.3998
251.2923, 250.7209
251.7744, 254.1075
252.2565, 258.2278
252.7386, 264.7634
253.2208, 274.1490
253.7029, 285.6333
254.1850, 298.1840
254.6671, 311.5513
255.1492, 326.5383
255.6313, 343.6604
256.1135, 363.2288
256.5956, 382.2124
257.0777, 400.2666
257.5598, 417.7614
258.0419, 435.0315
258.5240, 451.5435
259.0062, 468.5320
259.4883, 486.3685
259.9704, 504.7231
260.4525, 524.0646
260.9346, 544.1257
261.4167, 565.2119
261.8989, 587.3982
262.3810, 609.8118
262.8631, 635.2607
263.3452, 664.3862
263.8273, 697.6017
264.3094, 732.1726
264.7916, 768.4587
265.2737, 806.4578
265.7558, 846.1169
266.2379, 886.0530
266.7200, 931.7163
267.2021, 985.8066
267.6843, 1047.337
268.1664, 1108.240
268.6485, 1167.134
269.1306, 1227.970
269.6127, 1294.173
270.0948, 1366.816
270.5770, 1439.142
271.0591, 1510.634
271.5412, 1580.182
272.0233, 1645.825
272.5054, 1708.138
272.9875, 1761.861
273.4697, 1804.433
273.9518, 1837.092
274.4339, 1852.377
274.9160, 1849.168
275.3981, 1828.323
275.8802, 1790.339
276.3624, 1734.445
276.8445, 1666.626
277.3266, 1587.923
277.8087, 1497.570
278.2908, 1407.531
278.7729, 1318.095
279.2551, 1230.380
279.7372, 1149.219
280.2193, 1074.679
280.7014, 1004.664
281.1835, 937.7510
281.6656, 873.9476
282.1478, 811.9572
282.6299, 750.6669
283.1120, 693.3494
283.5941, 647.0911
284.0762, 612.1332
284.5583, 579.5199
285.0405, 544.0774
285.5226, 506.4966
286.0047, 472.8940
286.4868, 443.2827
286.9689, 417.7397
287.4510, 397.6826
287.9332, 382.8805
288.4153, 368.4633
288.8974, 351.9761
289.3795, 334.4719
289.8616, 320.9554
290.3438, 311.5710
290.8259, 304.5061
291.3080, 298.0367
291.7901, 292.3104
292.2722, 287.4868
292.7543, 283.2836
293.2365, 280.2063
293.7186, 279.9188
294.2007, 282.4514
294.6828, 286.2557
295.1649, 289.9797
295.6470, 293.8265
296.1292, 298.5520
296.6113, 304.5323
297.0934, 311.2830
297.5755, 318.1858
298.0576, 325.2952
298.5397, 332.5997
299.0219, 339.5229
299.5040, 346.6157
299.9861, 355.2366
300.4682, 366.3562
300.9503, 377.9110
301.4324, 387.5265
301.9146, 395.4032
302.3967, 402.6205
302.8788, 409.4198
303.3609, 416.1458
303.8430, 423.5533
304.3251, 432.1089
304.8073, 439.9716
305.2894, 445.4817
305.7715, 448.9297
306.2536, 451.1095
306.7357, 450.8514
307.2178, 450.4503
307.7000, 452.3419
308.1821, 456.7091
308.6642, 462.2594
309.1463, 468.0835
309.6284, 474.6099
310.1105, 482.7068
310.5927, 493.5345
311.0748, 504.9570
311.5569, 515.3555
312.0390, 524.9125
312.5211, 535.0229
313.0032, 547.0116
313.4854, 559.7998
313.9675, 572.0000
314.4496, 584.4395
314.9317, 595.2500
315.4138, 603.4633
315.8959, 609.2395
316.3781, 613.7548
316.8602, 619.6583
317.3423, 623.2010
317.8244, 621.6833
318.3065, 614.8041
318.7886, 602.6564
319.2708, 583.5115
319.7529, 558.8289
320.2350, 532.7433
320.7171, 506.9402
321.1992, 480.0911
321.6813, 451.4075
322.1635, 419.9469
322.6456, 388.3854
323.1277, 356.2373
323.6098, 324.4708
324.0919, 294.5861
324.5740, 266.5000
325.0562, 240.9958
325.5383, 218.9303
326.0204, 201.2743
326.5025, 183.2089
326.9846, 162.5793
327.4667, 142.2482
327.9489, 124.9855
328.4310, 112.7396
328.9131, 101.3994
329.3952, 90.40991
329.8773, 79.79309
330.3594, 69.49121
330.8416, 59.00146
331.3237, 49.36670
331.8058, 41.42444
332.2879, 35.91101
332.7700, 30.82812
333.2521, 25.87366
333.7343, 21.10730
334.2164, 16.98694
334.6985, 13.89124
335.1806, 10.94885
335.6627, 7.574951
336.1448, 3.363892
336.6270, 5.5176001E-02
337.1091, 2.395508
337.5912, 4.019653
338.0733, 5.694458
338.5554, 7.399170
339.0375, 9.163940
339.5197, 11.07214
340.0018, 13.11523
340.4839, 14.89343
340.9660, 16.40552
341.4481, 17.56274
341.9302, 17.99158
342.4124, 17.63025
342.8945, 17.47485
343.3766, 18.14380
343.8587, 19.29175
344.3408, 18.87866
344.8229, 16.62744
345.3051, 14.60767
345.7872, 15.43323
346.2693, 18.54517
346.7514, 20.13928
347.2335, 18.99487
347.7156, 16.45972
348.1978, 14.91541
348.6799, 14.32178
349.1620, 14.31372
349.6441, 15.10754
350.1262, 16.26196
350.6083, 16.62964
351.0905, 15.93701
351.5726, 14.97437
352.0547, 14.86401
352.5368, 15.29150
353.0189, 15.30286
353.5010, 13.88965
353.9832, 12.05225
354.4653, 10.93494
354.9474, 10.59216
355.4295, 10.83521
355.9116, 12.59937
356.3937, 14.64844
356.8759, 15.08813
357.3580, 11.32043
357.8401, 7.321777
358.3222, 6.316284
358.8043, 7.798584
359.2864, 8.802490
359.7686, 7.116577
360.2507, 4.598389
360.7328, 2.868652
361.2149, 2.636475
361.6970, 2.635864
362.1791, 2.702148
362.6613, 2.658447
363.1434, 2.085693
363.6255, 0.1381840
364.1076, 2.107300
364.5897, 2.632324
365.0718, 0.8887940
365.5540, 0.1074220
366.0361, 2.409668
366.5182, 5.456055
367.0003, 6.448242
367.4824, 1.640015
367.9645, 1.697144
368.4467, 0.8489990
368.9288, 4.500854
369.4109, 6.890137
369.8930, 3.741455
370.3751, 0.3393550
370.8572, 2.220459
371.3394, 0.3198240
371.8215, 1.171387
372.3036, 1.822876
372.7857, 1.858154
373.2678, 2.029785
373.7499, 2.162231
374.2321, 2.712280
374.7142, 4.092407
375.1963, 6.723877
375.6784, 8.200073
376.1605, 7.942261
376.6426, 7.234253
377.1248, 8.346069
377.6069, 11.67175
378.0890, 14.45239
378.5711, 15.45166
379.0532, 15.02246
379.5353, 16.06299
380.0175, 18.95825
380.4996, 21.46863
380.9817, 20.79956
381.4638, 17.40552
381.9459, 15.06067
382.4280, 14.66736
382.9102, 15.55383
383.3923, 16.69177
383.8744, 18.05798
384.3565, 19.37524
384.8386, 20.31079
385.3207, 21.08191
385.8029, 22.35645
386.2850, 24.40381
386.7671, 25.92151
387.2492, 24.79822
387.7313, 22.10168
388.2134, 20.28186
388.6956, 21.87952
389.1777, 23.94910
389.6598, 23.31458
390.1419, 20.12012
390.6240, 17.37732
391.1061, 17.65332
391.5883, 19.03674
392.0704, 19.44641
392.5525, 17.27686
393.0346, 15.50012
393.5167, 16.06311
393.9988, 18.15698
394.4810, 19.48877
394.9631, 18.17615
395.4452, 16.71094
395.9273, 16.44019
396.4094, 17.92639
396.8915, 19.21777
397.3737, 19.52637
397.8558, 19.51953
398.3379, 20.04993
398.8200, 23.11987
399.3021, 24.66174
399.7842, 22.86365
400.2664, 17.77625
400.7485, 15.48035
401.2306, 17.99170
401.7127, 21.17798
402.1948, 22.35425
402.6769, 19.98083
403.1591, 19.35461
403.6412, 21.36829
404.1233, 24.64001
404.6054, 26.30286
405.0875, 26.32178
405.5696, 25.50830
406.0518, 23.83240
406.5339, 21.20837
407.0160, 18.95935
407.4981, 17.02271
407.9802, 15.50720
408.4623, 14.83289
408.9445, 15.06787
409.4266, 15.23792
409.9087, 14.99512
410.3908, 14.50098
410.8729, 14.05981
411.3550, 13.79333
411.8372, 14.06201
412.3193, 15.80603
412.8014, 18.13342
413.2835, 18.73608
413.7656, 16.87305
414.2477, 14.59290
414.7299, 14.24658
415.2120, 15.56494
415.6941, 17.24573
416.1762, 18.19666
416.6583, 19.07031
417.1404, 20.71631
417.6226, 23.29675
418.1047, 26.08069
418.5868, 29.06299
419.0689, 31.65125
419.5510, 33.36133
420.0331, 33.15857
420.5153, 33.22815
420.9974, 34.77820
421.4795, 37.39148
421.9616, 39.59753
422.4437, 41.02344
422.9258, 41.76343
423.4080, 41.74377
423.8901, 40.77991
424.3722, 40.76794
424.8543, 42.48328
425.3364, 44.53784
425.8185, 45.87207
426.3007, 46.77942
426.7828, 47.46802
427.2649, 47.40479
427.7470, 46.56628
428.2291, 46.26013
428.7112, 46.43494
429.1934, 47.74951
429.6755, 50.77966
430.1576, 55.90430
430.6397, 60.23401
431.1218, 63.58240
431.6039, 66.25977
432.0861, 68.66321
432.5682, 70.79224
433.0503, 73.31555
433.5324, 76.51111
434.0145, 80.16333
434.4966, 83.61951
434.9788, 86.94507
435.4609, 90.64392
435.9430, 94.80212
436.4251, 99.61414
436.9072, 105.8451
437.3893, 114.1149
437.8715, 122.8801
438.3536, 130.4745
438.8357, 137.0948
439.3178, 143.3051
439.7999, 147.9911
440.2820, 153.3068
440.7642, 161.5570
441.2463, 172.9332
441.7284, 184.5870
442.2105, 194.9734
442.6926, 204.9281
443.1747, 215.2567
443.6569, 226.2417
444.1390, 237.5662
444.6211, 249.2878
445.1032, 261.2788
445.5853, 272.7905
446.0674, 281.3289
446.5496, 291.6027
447.0317, 305.9901
447.5138, 326.4631
447.9959, 345.0068
448.4780, 360.4474
448.9601, 374.9856
449.4423, 391.0541
449.9244, 409.1035
450.4065, 427.3651
450.8886, 445.3350
451.3707, 463.2993
451.8528, 483.3999
452.3350, 506.4739
452.8171, 529.3943
453.2992, 550.5084
453.7813, 569.8556
454.2634, 589.8660
454.7455, 610.3828
455.2277, 632.6548
455.7098, 659.7053
456.1919, 690.6672
456.6740, 721.7484
457.1561, 751.1869
457.6382, 779.6809
458.1204, 807.1455
458.6025, 833.9717
459.0846, 860.9315
459.5667, 890.0966
460.0488, 919.4612
460.5309, 946.5220
461.0131, 970.6561
461.4952, 993.4561
461.9773, 1017.252
462.4594, 1039.811
462.9415, 1058.167
463.4236, 1070.240
463.9058, 1078.441
464.3879, 1083.543
464.8700, 1085.533
465.3521, 1085.047
465.8342, 1082.918
466.3163, 1077.827
466.7985, 1068.838
467.2806, 1053.984
467.7627, 1038.672
468.2448, 1022.826
468.7269, 1006.778
469.2090, 990.5625
469.6912, 972.5688
470.1733, 957.1311
470.6554, 945.8674
471.1375, 938.3011
471.6196, 929.2932
472.1017, 917.6570
472.5839, 907.8733
473.0660, 904.0869
473.5481, 906.3947
474.0302, 905.8389
474.5123, 901.1780
474.9944, 895.0886
475.4766, 892.2572
475.9587, 892.0170
476.4408, 889.9861
476.9229, 884.6659
477.4050, 876.4452
477.8871, 865.6055
478.3693, 852.2601
478.8514, 837.2649
479.3335, 821.7583
479.8156, 804.6403
480.2977, 784.5548
480.7798, 760.9692
481.2620, 735.6577
481.7441, 708.7162
482.2262, 680.8994
482.7083, 653.3284
483.1904, 625.9260
483.6725, 599.0842
484.1547, 573.2581
484.6368, 548.4738
485.1189, 523.7921
485.6010, 497.3680
486.0831, 472.3104
486.5652, 450.5438
487.0474, 433.8837
487.5295, 416.1815
488.0116, 396.5297
488.4937, 376.7068
488.9758, 359.0345
489.4579, 343.7776
489.9401, 329.8154
490.4222, 316.9049
490.9043, 305.0314
491.3864, 293.7767
491.8685, 283.1970
492.3506, 272.5621
492.8328, 260.7742
493.3149, 248.3845
493.7970, 237.7261
494.2791, 229.0349
494.7612, 221.7562
495.2433, 215.4937
495.7255, 210.0286
496.2076, 204.8458
496.6897, 200.5111
497.1718, 195.7075
497.6539, 188.3538
498.1360, 179.3905
498.6182, 171.8894
499.1003, 168.3987
499.5824, 165.9875
500.0645, 162.7379
500.5466, 158.1163
501.0287, 153.9326
501.5109, 151.1265
501.9930, 149.1029
502.4751, 147.0952
502.9572, 144.8656
503.4393, 142.0122
503.9214, 138.2103
504.4036, 133.9620
504.8857, 130.5846
505.3678, 128.2836
505.8499, 126.8151
506.3320, 126.0006
506.8141, 125.5953
507.2963, 125.6964
507.7784, 126.9740
508.2605, 127.8546
508.7426, 125.8993
509.2247, 121.2565
509.7068, 117.7356
510.1890, 116.2135
510.6711, 115.5417
511.1532, 113.9879
511.6353, 111.9578
512.1174, 110.4966
512.5995, 110.5283
513.0817, 110.7252
513.5638, 109.4424
514.0459, 106.7118
514.5280, 103.9452
515.0101, 101.7396
515.4922, 100.2970
515.9744, 100.0219
516.4565, 102.1553
516.9386, 103.2104
517.4207, 100.5609
517.9028, 96.13208
518.3849, 93.28101
518.8671, 94.19128
519.3492, 95.24341
519.8313, 95.86682
520.3134, 96.00427
520.7955, 95.17493
521.2776, 93.01880
521.7598, 90.51160
522.2419, 87.96155
522.7240, 85.12427
523.2061, 83.64099
523.6882, 84.01062
524.1703, 84.69897
524.6525, 83.51819
525.1346, 80.58704
525.6167, 77.73657
526.0988, 75.62378
526.5809, 73.75659
527.0630, 71.08484
527.5452, 67.77954
528.0273, 64.69080
528.5094, 62.09937
528.9915, 60.10632
529.4736, 59.15442
529.9557, 59.31689
530.4379, 58.96265
530.9200, 56.57239
531.4021, 53.40527
531.8842, 50.71411
532.3663, 49.26904
532.8484, 47.60596
533.3306, 45.15283
533.8127, 42.23047
534.2948, 39.59814
534.7769, 37.38025
535.2590, 35.34229
535.7411, 33.47607
536.2233, 31.79651
536.7054, 30.12866
537.1875, 28.43420
537.6696, 26.91846
538.1517, 25.79517
538.6339, 25.13037
539.1160, 24.25293
539.5981, 23.07800
540.0802, 21.88550
540.5623, 21.29614
541.0444, 21.11230
541.5266, 20.12866
542.0087, 17.46326
542.4908, 14.37805
542.9729, 13.07666
543.4550, 13.09265
543.9371, 12.53955
544.4193, 8.654541
544.9014, 4.852661
545.3835, 4.789551
545.8656, 8.995483
546.3477, 11.92517
546.8298, 9.606812
547.3120, 6.008301
547.7941, 4.453613
548.2762, 8.271606
548.7583, 10.25427
549.2404, 8.770752
549.7225, 5.463867
550.2047, 3.112549
550.6868, 2.172729
551.1689, 1.279419
551.6510, 2.6489001E-02
552.1331, 1.580688
552.6152, 2.114258
553.0974, 1.407715
553.5795, 0.6772460
554.0616, 0.4736330
554.5437, 0.8339840
555.0258, 2.485229
555.5079, 5.679199
555.9901, 8.556152
556.4722, 8.782837
556.9543, 7.310303
557.4364, 6.030884
557.9185, 5.138184
558.4006, 5.197998
558.8828, 8.058350
559.3649, 12.24158
559.8470, 14.37524
560.3291, 11.05750
560.8112, 7.308838
561.2933, 5.203247
561.7755, 4.878784
562.2576, 5.330444
562.7397, 8.193604
563.2218, 10.38281
563.7039, 10.06018
564.1860, 5.296753
564.6682, 3.210083
565.1503, 4.780518
565.6324, 7.730469
566.1145, 9.241821
566.5966, 9.221558
567.0787, 8.270508
567.5609, 5.905396
568.0430, 3.384033
568.5251, 4.354248
569.0072, 8.307739
569.4893, 11.23743
569.9714, 10.35999
570.4536, 7.441040
570.9357, 4.448120
571.4178, 1.526001
571.8999, 0.3332520
572.3820, 0.1137700
572.8641, 1.623413
573.3463, 3.366577
573.8284, 5.792847
574.3105, 6.875854
574.7926, 4.856201
575.2747, 1.596802
575.7568, 0.5389400
576.2390, 0.2950440
576.7211, 0.3162840
577.2032, 0.5997310
577.6853, 1.385498
578.1674, 3.729980
578.6495, 8.251709
579.1317, 12.54980
579.6138, 15.72852
580.0959, 17.83850
580.5780, 18.78979
581.0601, 18.43933
581.5422, 18.74023
582.0244, 22.48743
582.5065, 28.09009
582.9886, 31.12891
583.4707, 30.67419
583.9528, 29.86255
584.4349, 31.30334
584.9171, 34.26135
585.3992, 37.66077
585.8813, 41.88147
586.3634, 45.64221
586.8455, 48.24536
587.3276, 49.95178
587.8098, 51.36438
588.2919, 50.64331
588.7740, 51.68237
589.2561, 56.54565
589.7382, 65.33936
590.2203, 71.01624
590.7025, 72.17334
591.1846, 72.62158
591.6667, 74.68213
592.1488, 78.44189
592.6309, 83.08496
593.1130, 88.82214
593.5952, 94.69385
594.0773, 99.58679
594.5594, 103.6615
595.0415, 107.3409
595.5236, 110.6174
596.0057, 113.8973
596.4879, 117.1274
596.9700, 120.6748
597.4521, 125.3722
597.9342, 134.0354
598.4163, 141.8188
598.8984, 144.9431
599.3806, 143.9994
599.8627, 144.7648
600.3448, 150.1627
600.8269, 156.1810
601.3090, 160.7897
601.7911, 163.2977
602.2733, 167.2628
602.7554, 173.5026
603.2375, 180.0376
603.7196, 184.7721
604.2017, 187.5540
604.6838, 190.5337
605.1660, 193.9495
605.6481, 197.7805
606.1302, 202.6046
606.6123, 207.9961
607.0944, 211.8828
607.5765, 212.8009
608.0587, 212.5684
608.5408, 213.1050
609.0229, 214.2657
609.5050, 215.5801
609.9871, 215.9760
610.4692, 217.0570
610.9514, 220.4597
611.4335, 226.4751
611.9156, 230.9757
612.3977, 231.7722
612.8798, 231.7633
613.3619, 232.6544
613.8441, 235.4785
614.3262, 236.5592
614.8083, 234.8307
615.2904, 233.0665
615.7725, 235.6422
616.2546, 242.8965
616.7368, 247.4541
617.2189, 247.3149
617.7010, 244.9099
618.1831, 244.4003
618.6652, 245.5697
619.1473, 247.3900
619.6295, 249.2008
620.1116, 251.3533
620.5937, 254.8472
621.0758, 259.2069
621.5579, 262.1934
622.0400, 260.6776
622.5222, 259.2000
623.0043, 260.4132
623.4864, 264.9500
623.9685, 269.5026
624.4506, 274.1897
624.9327, 278.6318
625.4149, 282.5343
625.8970, 285.4331
626.3791, 288.9207
626.8612, 293.0743
627.3433, 297.3480
627.8254, 300.9019
628.3076, 303.9260
628.7897, 308.0638
629.2718, 314.3024
629.7539, 320.8315
630.2360, 324.3802
630.7181, 325.5808
631.2003, 326.5212
631.6824, 327.3911
632.1645, 329.1367
632.6466, 332.9930
633.1287, 338.8186
633.6108, 344.7587
634.0930, 350.6945
634.5751, 356.0222
635.0572, 360.1816
635.5393, 362.9246
636.0214, 366.1545
636.5035, 370.3545
636.9857, 374.3293
637.4678, 377.2465
637.9499, 379.0566
638.4320, 379.9989
638.9141, 379.9875
639.3962, 379.3383
639.8784, 378.4421
640.3605, 377.2714
640.8426, 375.6729
641.3247, 373.6233
641.8068, 371.1433
642.2889, 368.5964
642.7711, 365.6439
643.2532, 361.4386
643.7353, 354.2787
644.2174, 347.1219
644.6995, 341.7896
645.1816, 337.9556
645.6638, 333.0887
646.1459, 326.5793
646.6280, 319.1824
647.1101, 310.8737
647.5922, 301.6512
648.0743, 292.3313
648.5565, 282.6127
649.0386, 273.6776
649.5207, 267.0498
650.0028, 262.4176
650.4849, 257.1897
650.9670, 251.2019
651.4492, 244.8567
651.9313, 239.1846
652.4134, 233.2990
652.8955, 225.4453
653.3776, 214.2133
653.8597, 203.0187
654.3419, 193.9165
654.8240, 186.2437
655.3061, 179.1467
655.7882, 172.1230
656.2703, 165.9966
656.7524, 161.5178
657.2346, 158.1426
657.7167, 154.1860
658.1988, 149.2847
658.6809, 144.5654
659.1630, 140.4534
659.6451, 136.8363
660.1273, 132.7318
660.6094, 128.0227
661.0915, 124.3701
661.5736, 123.2738
662.0557, 123.7778
662.5378, 124.3461
663.0200, 124.8846
663.5021, 124.8254
663.9842, 123.2333
664.4663, 121.1729
664.9484, 119.3627
665.4305, 117.5083
665.9127, 117.3047
666.3948, 120.8394
666.8769, 125.4839
667.3590, 128.3312
667.8411, 127.5685
668.3232, 129.0171
668.8054, 134.2294
669.2875, 140.6063
669.7696, 143.0900
670.2517, 141.5953
670.7338, 140.5449
671.2159, 141.1010
671.6981, 142.9783
672.1802, 146.0245
672.6623, 149.9967
673.1444, 154.2019
673.6265, 159.5532
674.1086, 163.9786
674.5908, 165.3783
675.0729, 164.1760
675.5550, 163.4917
676.0371, 164.9214
676.5192, 166.5946
677.0013, 167.8677
677.4835, 168.6484
677.9656, 169.3260
678.4477, 170.1139
678.9298, 170.1946
679.4119, 168.9696
679.8940, 166.4391
680.3762, 163.2531
680.8583, 159.3340
681.3404, 155.1776
681.8225, 151.2240
682.3046, 147.3557
682.7867, 143.4252
683.2689, 139.6768
683.7510, 134.9425
684.2331, 127.3026
684.7152, 118.5640
685.1973, 111.3350
685.6794, 108.4514
686.1616, 104.5541
686.6437, 97.59644
687.1258, 89.30957
687.6079, 82.75439
688.0900, 78.07471
688.5721, 75.14819
689.0543, 74.88391
689.5364, 75.77100
690.0185, 72.54163
690.5006, 65.35022
690.9827, 58.89893
691.4648, 56.53308
691.9470, 55.80115
692.4291, 52.50085
692.9112, 47.09729
693.3933, 42.19336
693.8754, 39.50232
694.3575, 37.53674
694.8397, 35.36401
695.3218, 32.88098
695.8039, 30.66553
696.2860, 29.22156
696.7681, 27.68323
697.2502, 25.43652
697.7324, 22.14172
698.2145, 20.15222
698.6966, 19.84937
699.1787, 19.80530
699.6608, 18.29895
700.1429, 15.72998
700.6251, 14.03162
701.1072, 13.47913
701.5893, 13.57227
702.0714, 14.45996
702.5535, 15.45349
703.0356, 15.49463
703.5178, 13.76526
703.9999, 11.89880
704.4820, 9.984985
704.9641, 8.453735
705.4462, 8.074219
705.9283, 10.64636
706.4105, 11.43604
706.8926, 9.218506
707.3747, 5.264648
707.8568, 2.456421
708.3389, 0.8218990
708.8210, 8.3130002E-02
709.3032, 0.3133540
709.7853, 2.7588001E-02
710.2674, 1.188354
710.7495, 2.881836
711.2316, 3.836914
711.7137, 2.728760
712.1959, 1.143311
712.6780, 0.2562260
713.1601, 1.5259000E-02
713.6422, 0.4930420
714.1243, 1.825806
714.6064, 3.013306
715.0886, 3.645264
715.5707, 3.710571
716.0528, 3.628662
716.5349, 3.296509
717.0170, 3.060547
717.4991, 3.316040
717.9813, 3.941895
718.4634, 3.909424
718.9455, 3.173462
719.4276, 2.233887
719.9097, 1.221313
720.3918, 0.3879390
720.8740, 0.2963870
721.3561, 1.206787
721.8382, 1.712524
722.3203, 0.3327640
722.8024, 1.252197
723.2845, 1.480713
723.7667, 1.493774
724.2488, 2.769531
724.7309, 1.622314
725.2130, 0.4256590
725.6951, 1.730957
726.1772, 2.278442
726.6594, 2.291626
727.1415, 1.753540
727.6236, 0.8503420
728.1057, 0.4168700
728.5878, 1.844971
729.0699, 2.949341
729.5521, 3.704468
730.0342, 3.860962
730.5163, 2.438599
730.9984, 0.4327390
731.4805, 0.3735350
731.9626, 2.279785
732.4448, 3.916382
732.9269, 2.932983
733.4090, 0.5897220
733.8911, 0.7628170
734.3732, 4.347778
734.8553, 6.682129
735.3375, 5.913818
735.8196, 3.248657
736.3017, 1.508301
736.7838, 0.6560060
737.2659, 0.4772950
737.7480, 1.316040
738.2302, 2.439697
738.7123, 3.303711
739.1944, 3.891479
739.6765, 4.169189
740.1586, 4.063965
740.6407, 3.712769
741.1229, 3.398438
741.6050, 3.084839
742.0871, 1.231567
742.5692, 3.308838
743.0513, 6.723022
743.5334, 6.332886
744.0156, 2.736450
744.4977, 0.9758300
744.9798, 1.042969
745.4619, 1.828735
745.9440, 3.082397
746.4261, 4.233521
746.9083, 4.380615
747.3904, 3.424316
747.8725, 2.596924
748.3546, 2.305054
748.8367, 2.441040
749.3188, 3.016846
749.8010, 4.161133
750.2831, 5.146362
750.7652, 6.131470
751.2473, 6.676147
751.7294, 6.056641
752.2115, 4.306030
752.6937, 4.118042
753.1758, 5.917725
753.6579, 7.536499
754.1400, 6.128052
754.6221, 3.259277
755.1042, 1.584473
755.5864, 1.919434
756.0685, 2.360474
756.5506, 1.795288
757.0327, 0.9189450
757.5148, 0.4215090
757.9969, 0.1680910
758.4791, 0.6981200
758.9612, 4.100586
759.4433, 7.748779
759.9254, 8.376099
760.4075, 5.807373
760.8896, 4.215698
761.3718, 4.401001
761.8539, 5.152588
762.3360, 5.044067
762.8181, 4.279541
763.3002, 3.182007
763.7823, 1.194824
764.2645, 8.4595002E-02
764.7466, 1.651611
765.2287, 4.466919
765.7108, 6.417358
766.1929, 6.963379
766.6750, 6.791382
767.1572, 5.532104
767.6393, 4.012817
768.1214, 3.902344
768.6035, 5.273315
769.0856, 6.515503
769.5677, 7.356201
770.0499, 7.620605
770.5320, 6.661865
771.0141, 4.885986
771.4962, 3.282715
771.9783, 1.767822
772.4604, 0.9664310
772.9426, 1.656982
773.4247, 3.330933
773.9068, 4.747559
774.3889, 5.588013
774.8710, 6.437622
775.3531, 7.469849
775.8353, 8.492920
776.3174, 9.104492
776.7995, 9.357178
777.2816, 9.199829
777.7637, 8.661255
778.2458, 7.669800
778.7280, 5.453247
779.2101, 2.499146
779.6922, 0.5764160
780.1743, 1.064697
780.6564, 2.439453
781.1385, 4.026978
781.6207, 5.709229
782.1028, 7.650391
782.5849, 10.94287
783.0670, 13.07996
783.5491, 12.71985
784.0313, 10.70337
784.5134, 10.68579
784.9955, 12.68298
785.4776, 14.63403
785.9597, 15.68091
786.4418, 15.91968
786.9240, 15.35901
787.4061, 14.14453
787.8882, 12.78418
788.3703, 10.30981
788.8524, 9.127319
789.3345, 11.60144
789.8167, 16.85596
790.2988, 18.92017
790.7809, 16.08569
791.2630, 13.59668
791.7451, 13.12256
792.2272, 14.07397
792.7094, 14.90955
793.1915, 15.78699
793.6736, 16.33472
794.1557, 16.20361
794.6378, 15.48157
795.1199, 13.62341
795.6021, 11.04590
796.0842, 9.697998
796.5663, 11.77173
797.0484, 14.02649
797.5305, 14.59973
798.0126, 13.80750
798.4948, 14.74841
798.9769, 18.29785
799.4590, 21.41248
799.9411, 22.76392
800.4232, 22.74329
800.9053, 22.60693
801.3875, 22.41785
801.8696, 22.74719
802.3517, 24.34766
802.8338, 26.35388
803.3159, 27.86658
803.7980, 28.96399
804.2802, 30.23206
804.7623, 31.89478
805.2444, 33.69897
805.7265, 35.61743
806.2086, 37.59094
806.6907, 39.14917
807.1729, 40.15833
807.6550, 41.27209
808.1371, 43.42761
808.6192, 45.64587
809.1013, 44.45630
809.5834, 40.51843
810.0656, 37.58411
810.5477, 38.91333
811.0298, 41.16321
811.5119, 41.91345
811.9940, 41.36279
812.4761, 41.60608
812.9583, 43.74890
813.4404, 45.83423
813.9225, 47.65076
814.4046, 48.97815
814.8867, 47.55115
815.3688, 43.15479
815.8510, 40.64685
816.3331, 43.83484
816.8152, 49.72290
817.2973, 53.52856
817.7794, 55.59412
818.2615, 57.27380
818.7437, 59.20264
819.2258, 60.86914
819.7079, 61.82202
820.1900, 62.18652
820.6721, 62.95947
821.1542, 64.17151
821.6364, 65.80835
822.1185, 68.46082
822.6006, 71.23291
823.0827, 70.36719
823.5648, 66.39136
824.0469, 63.44958
824.5291, 64.31506
825.0112, 66.77917
825.4933, 69.71021
825.9754, 72.61682
826.4575, 73.96570
826.9396, 70.76465
827.4218, 68.90723
827.9039, 70.54688
828.3860, 74.56995
828.8681, 76.89783
829.3502, 77.07800
829.8323, 78.42358
830.3145, 82.50452
830.7966, 87.83240
831.2787, 91.71045
831.7608, 94.43823
832.2429, 96.84985
832.7250, 99.29883
833.2072, 101.5989
833.6893, 103.0193
834.1714, 104.2336
834.6535, 107.1938
835.1356, 113.5851
835.6177, 118.6879
836.0999, 121.0974
836.5820, 122.3655
837.0641, 126.4231
837.5462, 132.9894
838.0283, 138.8440
838.5104, 142.8185
838.9926, 145.9020
839.4747, 148.4843
839.9568, 151.0743
840.4389, 154.6096
840.9210, 161.6661
841.4031, 166.8613
841.8853, 167.1603
842.3674, 165.8230
842.8495, 167.6304
843.3316, 173.3152
843.8137, 178.2963
844.2958, 181.6215
844.7780, 184.5470
845.2601, 189.8470
845.7422, 196.1169
846.2243, 199.9668
846.7064, 199.9824
847.1885, 198.7035
847.6707, 196.1798
848.1528, 193.8234
848.6349, 193.4070
849.1170, 196.6732
849.5991, 199.0339
850.0812, 200.4453
850.5634, 200.9724
851.0455, 200.3170
851.5276, 198.7028
852.0097, 197.8828
852.4918, 198.2174
852.9739, 198.4613
853.4561, 198.3920
853.9382, 197.1075
854.4203, 192.9930
854.9024, 184.2854
855.3845, 177.8256
855.8666, 176.4119
856.3488, 176.2108
856.8309, 174.8984
857.3130, 172.3274
857.7951, 169.2789
858.2772, 165.7057
858.7593, 161.9222
859.2415, 158.5616
859.7236, 155.0885
860.2057, 149.8879
860.6878, 142.8649
861.1699, 137.1537
861.6520, 135.5546
862.1342, 134.6455
862.6163, 132.4774
863.0984, 129.1033
863.5805, 124.7201
864.0626, 118.9713
864.5447, 113.1504
865.0269, 107.7783
865.5090, 103.0459
865.9911, 100.0037
866.4732, 98.40796
866.9553, 96.57019
867.4374, 92.47620
867.9196, 88.63684
868.4017, 87.68323
868.8838, 89.24463
869.3659, 88.92346
869.8480, 84.71045
870.3301, 80.38037
870.8123, 76.70740
871.2944, 74.06311
871.7765, 73.69617
872.2586, 75.17554
872.7407, 75.69739
873.2228, 73.16504
873.7050, 70.48181
874.1871, 71.96692
874.6692, 75.20020
875.1513, 75.13708
875.6334, 66.06812
876.1155, 58.92957
876.5977, 56.12427
877.0798, 55.84290
877.5619, 55.04578
878.0440, 53.83215
878.5261, 53.22876
879.0082, 53.39209
879.4904, 53.96936
879.9725, 55.12256
880.4546, 55.93335
880.9367, 54.91809
881.4188, 51.02686
881.9009, 47.96387
882.3831, 47.10303
882.8652, 47.00781
883.3473, 46.52661
883.8294, 45.72485
884.3115, 44.94641
884.7936, 44.00720
885.2758, 43.11328
885.7579, 42.63916
886.2400, 42.45068
886.7221, 41.98047
887.2042, 41.20605
887.6863, 41.46387
888.1685, 46.16479
888.6506, 50.15112
889.1327, 48.28577
889.6148, 38.92297
890.0969, 35.38354
890.5790, 39.79993
891.0612, 44.82458
891.5433, 45.87195
892.0254, 43.94714
892.5075, 41.18433
892.9896, 37.90125
893.4717, 35.66907
893.9539, 35.65967
894.4360, 36.28015
894.9181, 36.38635
895.4002, 36.02661
895.8823, 35.85474
896.3644, 36.58093
896.8466, 36.30884
897.3287, 34.06555
897.8108, 30.76831
898.2929, 28.20667
898.7750, 26.49988
899.2571, 26.38977
899.7393, 29.50464
900.2214, 32.29321
900.7035, 30.74634
901.1856, 27.05115
901.6677, 24.91382
902.1498, 27.32104
902.6320, 28.11707
903.1141, 26.17468
903.5962, 23.33398
904.0783, 22.28979
904.5604, 22.86023
905.0425, 22.63220
905.5247, 21.06897
906.0068, 19.86316
906.4889, 21.79199
906.9710, 24.35217
907.4531, 24.36914
907.9352, 20.28333
908.4174, 17.86011
908.8995, 19.61340
909.3816, 21.21838
909.8637, 19.55359
910.3458, 14.61816
910.8279, 12.17114
911.3101, 12.24451
911.7922, 12.82166
912.2743, 12.66895
912.7564, 12.06738
913.2385, 11.08093
913.7206, 9.814453
914.2028, 8.964844
914.6849, 8.884888
915.1670, 9.142578
915.6491, 9.958252
916.1312, 10.96057
916.6133, 10.42871
917.0955, 8.343994
917.5776, 6.514771
918.0597, 5.684082
918.5418, 5.322510
919.0239, 4.987305
919.5060, 4.597168
919.9882, 3.991089
920.4703, 2.203003
920.9524, 1.413330
921.4345, 2.690186
921.9166, 4.473633
922.3987, 4.627197
922.8809, 2.983276
923.3630, 2.103027
923.8451, 2.304443
924.3272, 2.979614
924.8093, 4.307495
925.2914, 5.320923
925.7736, 4.068848
926.2557, 0.3681640
926.7378, 2.736572
927.2199, 1.490356
927.7020, 5.359863
928.1841, 4.872925
928.6663, 5.0537001E-02
929.1484, 2.086914
929.6305, 1.424683
930.1126, 0.8315430
930.5947, 2.889648
931.0768, 5.577393
931.5590, 6.110107
932.0411, 4.902222
932.5232, 3.818726
933.0053, 3.737305
933.4874, 3.500732
933.9695, 2.295654
934.4517, 0.9799800
934.9338, 2.074463
935.4159, 5.629639
935.8980, 8.545532
936.3801, 10.14050
936.8622, 10.23059
937.3444, 6.496582
937.8265, 1.810303
938.3086, 0.7165530
938.7907, 7.481567
939.2728, 11.75354
939.7549, 10.14612
940.2371, 7.235229
940.7192, 7.056152
941.2013, 9.760986
941.6834, 10.21570
942.1655, 8.191528
942.6476, 5.538818
943.1298, 3.036499
943.6119, 1.269409
944.0940, 1.079346
944.5761, 2.454468
945.0582, 3.960205
945.5403, 6.272095
946.0225, 7.307617
946.5046, 5.776978
946.9867, 2.596313
947.4688, 2.205811
947.9509, 4.342285
948.4330, 4.627563
948.9152, 0.7269290
949.3973, 6.048584
949.8794, 4.189941
950.3615, 1.213989
950.8436, 3.720581
951.3257, 1.286743
951.8079, 5.156738
952.2900, 7.733765
952.7721, 8.640625
953.2542, 6.279541
953.7363, 1.338745
954.2184, 0.5310060
954.7006, 1.515381
955.1827, 4.046021
955.6648, 4.070190
956.1469, 3.511475
956.6290, 4.177856
957.1111, 6.458984
957.5933, 8.199463
958.0754, 9.131348
958.5575, 9.891968
959.0396, 10.50610
959.5217, 11.26074
960.0038, 13.56409
960.4860, 17.12024
960.9681, 20.39893
961.4502, 22.68860
961.9323, 24.30713
962.4144, 24.18567
962.8965, 23.71606
963.3787, 26.16748
963.8608, 33.46985
964.3429, 38.77649
964.8250, 40.98914
965.3071, 41.76001
965.7892, 42.77014
966.2714, 44.16565
966.7535, 46.86133
967.2356, 51.33154
967.7177, 54.35132
968.1998, 51.06433
968.6819, 48.09155
969.1641, 50.74500
969.6462, 59.55408
970.1283, 66.79675
970.6104, 72.55115
971.0925, 76.82812
971.5746, 78.51929
972.0568, 79.43481
972.5389, 83.17834
973.0210, 89.09363
973.5031, 94.88049
973.9852, 99.75439
974.4673, 104.1156
974.9495, 107.8451
975.4316, 111.2827
975.9137, 114.7498
976.3958, 118.1957
976.8779, 123.0028
977.3600, 129.8510
977.8422, 136.1107
978.3243, 137.2957
978.8064, 137.1403
979.2885, 140.7233
979.7706, 149.7279
980.2527, 158.0527
980.7349, 162.5552
981.2170, 169.0051
981.6991, 180.5729
982.1812, 196.7897
982.6633, 214.4041
983.1454, 233.2573
983.6276, 251.8375
984.1097, 265.9771
984.5918, 282.3256
985.0739, 306.1621
985.5560, 336.2554
986.0381, 369.3048
986.5203, 402.2131
987.0024, 442.3986
987.4845, 490.3203
987.9666, 547.2760
988.4487, 613.7683
988.9308, 690.4636
989.4130, 781.8037
989.8951, 888.9685
990.3772, 1007.910
990.8593, 1142.535
991.3414, 1283.083
991.8235, 1423.453
992.3057, 1564.476
992.7878, 1703.424
993.2699, 1841.066
993.7520, 1978.354
994.2341, 2109.297
994.7162, 2245.866
995.1984, 2399.458
995.6805, 2574.978
996.1626, 2780.849
996.6447, 3013.443
997.1268, 3289.362
997.6089, 3617.729
998.0911, 3987.403
998.5732, 4384.648
999.0553, 4810.543
999.5374, 5249.564
1000.020, 5695.323
1000.502, 6128.658
1000.984, 6602.250
1001.466, 6998.899
1001.948, 7230.652
1002.430, 7287.835
1002.912, 7049.261
1003.394, 6436.707
1003.876, 5694.052
1004.359, 4875.850
1004.841, 4028.051
1005.323, 3297.210
1005.805, 2675.902
1006.287, 2163.866
1006.769, 1775.110
1007.251, 1465.398
1007.733, 1231.152
1008.216, 1058.675
1008.698, 930.1180
1009.180, 850.7582
1009.662, 792.3250
1010.144, 753.7988
1010.626, 734.2495
1011.108, 739.5776
1011.590, 760.6663
1012.072, 784.2443
1012.555, 809.7502
1013.037, 841.4635
1013.519, 886.0103
1014.001, 930.8950
1014.483, 970.4652
1014.965, 1008.491
1015.447, 1056.512
1015.929, 1114.540
1016.411, 1180.433
1016.894, 1251.002
1017.376, 1334.642
1017.858, 1434.977
1018.340, 1554.010
1018.822, 1693.214
1019.304, 1853.302
1019.786, 2035.024
1020.268, 2240.466
1020.751, 2462.088
1021.233, 2702.380
1021.715, 2953.537
1022.197, 3202.176
1022.679, 3443.409
1023.161, 3645.562
1023.643, 3833.784
1024.125, 3932.937
1024.607, 3908.547
1025.090, 3777.908
1025.572, 3552.299
1026.054, 3224.144
1026.536, 2872.649
1027.018, 2501.686
1027.500, 2142.909
1027.982, 1819.892
1028.464, 1533.692
1028.947, 1286.124
1029.429, 1081.751
1029.911, 908.4835
1030.393, 765.7991
1030.875, 646.3350
1031.357, 550.9949
1031.839, 475.3691
1032.321, 406.6458
1032.803, 345.7207
1033.286, 293.6649
1033.768, 254.3904
1034.250, 221.3677
1034.732, 192.3036
1035.214, 167.4596
1035.696, 147.8440
1036.178, 134.3002
1036.660, 119.8278
1037.143, 103.5640
1037.625, 87.30762
1038.107, 70.63318
1038.589, 55.60022
1039.071, 45.73547
1039.553, 40.89233
1040.035, 36.17444
1040.517, 29.53748
1041.000, 24.62646
1041.482, 23.39417
1041.964, 23.67261
1042.446, 19.63074
1042.928, 12.48889
1043.410, 7.466675
1043.892, 6.666992
1044.374, 6.572754
1044.856, 4.962769
1045.339, 3.239502
1045.821, 2.480835
1046.303, 2.603760
1046.785, 4.812500
1047.267, 9.331421
1047.749, 13.89441
1048.231, 15.20081
1048.713, 16.84558
1049.195, 24.56213
1049.677, 36.52759
1050.160, 47.27100
1050.642, 53.97156
1051.124, 60.87732
1051.606, 67.73572
1052.088, 76.01526
1052.570, 88.04614
1053.052, 103.1942
1053.534, 117.8156
1054.017, 131.3804
1054.499, 147.9707
1054.981, 170.5497
1055.463, 196.7108
1055.945, 224.8894
1056.427, 255.1102
1056.909, 287.8081
1057.391, 322.8440
1057.874, 362.0753
1058.356, 406.0039
1058.838, 454.7383
1059.320, 509.3004
1059.802, 568.1948
1060.284, 630.8555
1060.766, 697.1995
1061.248, 767.9349
1061.730, 844.2229
1062.213, 922.3352
1062.695, 998.4604
1063.177, 1074.385
1063.659, 1155.096
1064.141, 1241.828
1064.623, 1339.109
1065.105, 1448.122
1065.587, 1569.461
1066.070, 1708.015
1066.552, 1858.481
1067.034, 2012.956
1067.516, 2170.691
1067.998, 2339.894
1068.480, 2522.044
1068.962, 2694.723
1069.444, 2853.680
1069.927, 2981.046
1070.409, 3068.557
1070.891, 3110.422
1071.373, 3088.683
1071.855, 2998.818
1072.337, 2858.128
1072.819, 2662.431
1073.301, 2432.665
1073.783, 2187.806
1074.266, 1937.717
1074.748, 1699.702
1075.230, 1474.875
1075.712, 1273.421
1076.194, 1097.066
1076.676, 943.5659
1077.158, 812.0430
1077.640, 702.2209
1078.122, 607.0149
1078.604, 525.8911
1079.087, 454.3496
1079.569, 389.6469
1080.051, 333.9453
1080.533, 292.3202
1081.015, 260.5494
1081.497, 229.2313
1081.979, 198.1443
1082.461, 170.4772
1082.944, 146.6610
1083.426, 125.5131
1083.908, 106.1772
1084.390, 89.08875
1084.872, 75.33179
1085.354, 64.66797
1085.836, 54.56641
1086.318, 43.85730
1086.801, 34.81958
1087.283, 28.53320
1087.765, 23.34033
1088.247, 15.58032
1088.729, 6.479004
1089.211, 0.7174070
1089.693, 5.369019
1090.175, 8.214355
1090.657, 7.905518
1091.140, 7.487549
1091.622, 8.633789
1092.104, 11.16309
1092.586, 13.93799
1093.068, 16.87146
1093.550, 18.72119
1094.032, 18.67554
1094.514, 17.79443
1094.997, 16.68250
1095.479, 15.25623
1095.961, 13.34509
1096.443, 10.71838
1096.925, 8.449585
1097.407, 6.571777
1097.889, 4.794922
1098.371, 3.261475
1098.854, 1.461792
1099.336, 1.141846
1099.818, 4.575195
1100.300, 8.902588
1100.782, 15.52966
1101.264, 20.43005
1101.746, 22.45386
1102.228, 23.84290
1102.710, 27.80237
1103.193, 33.42725
1103.675, 38.56580
1104.157, 42.95142
1104.639, 47.42834
1105.121, 52.40759
1105.603, 57.53101
1106.085, 62.34851
1106.567, 67.40381
1107.049, 75.18994
1107.531, 85.19971
1108.014, 92.58728
1108.496, 95.59448
1108.978, 97.67932
1109.460, 100.6968
1109.942, 104.3008
1110.424, 108.5533
1110.906, 113.5454
1111.388, 115.8618
1111.871, 115.2695
1112.353, 115.3848
1112.835, 119.1772
1113.317, 123.1090
1113.799, 122.7888
1114.281, 120.1146
1114.763, 118.1315
1115.245, 117.0640
1115.728, 117.7832
1116.210, 120.9253
1116.692, 123.8348
1117.174, 124.0858
1117.656, 122.7124
1118.138, 121.3461
1118.620, 120.0197
1119.102, 118.6598
1119.584, 117.3351
1120.067, 115.9387
1120.549, 114.8337
1121.031, 112.7880
1121.513, 106.7000
1121.995, 98.37891
1122.477, 94.88928
1122.959, 96.65601
1123.441, 97.44824
1123.924, 92.39819
1124.406, 87.20874
1124.888, 84.37402
1125.370, 83.30176
1125.852, 82.49780
1126.334, 81.92175
1126.816, 79.76013
1127.298, 74.94641
1127.781, 71.58960
1128.263, 73.60510
1128.745, 77.65955
1129.227, 81.69360
1129.709, 85.55554
1130.191, 86.05725
1130.673, 82.84985
1131.155, 82.39526
1131.637, 88.32556
1132.120, 96.26978
1132.602, 101.4657
1133.084, 105.8340
1133.566, 112.1890
1134.048, 122.2439
1134.530, 129.2878
1135.012, 132.5153
1135.494, 136.1165
1135.976, 142.9152
1136.458, 151.6875
1136.941, 161.4558
1137.423, 171.6475
1137.905, 180.6934
1138.387, 185.2158
1138.869, 193.9093
1139.351, 209.0736
1139.833, 224.1246
1140.315, 230.7531
1140.798, 232.9598
1141.280, 240.8915
1141.762, 253.9861
1142.244, 265.5105
1142.726, 271.4429
1143.208, 277.2448
1143.690, 284.2985
1144.172, 291.7666
1144.655, 299.1283
1145.137, 305.8274
1145.619, 309.9026
1146.101, 311.1166
1146.583, 311.7660
1147.065, 314.0450
1147.547, 314.8457
1148.029, 312.4781
1148.511, 308.1893
1148.994, 305.2531
1149.476, 303.2781
1149.958, 300.1896
1150.440, 295.4259
1150.922, 290.0671
1151.404, 285.9463
1151.886, 280.7347
1152.368, 272.2623
1152.851, 260.8947
1153.333, 249.5275
1153.815, 238.1223
1154.297, 227.1229
1154.779, 216.5197
1155.261, 206.6305
1155.743, 199.3785
1156.225, 192.4469
1156.708, 182.6587
1157.190, 169.2694
1157.672, 158.0068
1158.154, 148.9978
1158.636, 140.8829
1159.118, 133.4292
1159.600, 126.2153
1160.082, 117.9469
1160.564, 109.8557
1161.047, 104.3805
1161.529, 104.2510
1162.011, 100.3572
1162.493, 91.52795
1162.975, 83.69312
1163.457, 83.86206
1163.939, 86.06787
1164.421, 80.79883
1164.903, 70.45996
1165.385, 62.62976
1165.868, 60.64539
1166.350, 58.34692
1166.832, 55.53503
1167.314, 51.63489
1167.796, 44.81335
1168.278, 37.13586
1168.760, 32.43530
1169.242, 30.60278
1169.725, 29.53381
1170.207, 29.11267
1170.689, 28.78235
1171.171, 28.88037
1171.653, 28.25940
1172.135, 24.54822
1172.617, 19.13989
1173.099, 14.91248
1173.582, 12.18994
1174.064, 10.06152
1174.546, 8.652832
1175.028, 7.269653
1175.510, 5.790771
1175.992, 4.204468
1176.474, 2.088379
1176.956, 0.1080320
1177.438, 0.5825200
1177.921, 1.275024
1178.403, 2.171875
1178.885, 0.1384280
1179.367, 2.734497
1179.849, 4.785645
1180.331, 6.090820
1180.813, 5.746338
1181.295, 3.971802
1181.778, 1.245850
1182.260, 3.031372
1182.742, 5.543335
1183.224, 3.500977
1183.706, 0.4000240
1184.188, 2.138916
1184.670, 4.052856
1185.152, 4.745239
1185.635, 4.324341
1186.117, 3.299561
1186.599, 1.554810
1187.081, 8.1786998E-02
1187.563, 1.262451
1188.045, 2.106567
1188.527, 2.783936
1189.009, 3.252319
1189.491, 2.672363
1189.974, 1.230835
1190.456, 0.3022460
1190.938, 1.111816
1191.420, 1.870728
1191.902, 1.719727
1192.384, 1.047363
1192.866, 9.3993999E-02
1193.348, 1.755493
1193.830, 1.141235
1194.313, 1.533813
1194.795, 3.655640
1195.277, 3.457764
1195.759, 2.505737
1196.241, 0.5596920
1196.723, 0.9932860
1197.205, 0.2036130
1197.687, 4.292847
1198.169, 5.489502
1198.652, 3.644775
1199.134, 1.649414
1199.616, 1.566650
1200.098, 1.860718
1200.580, 1.716797
1201.062, 1.331543
1201.544, 0.8352050
1202.026, 0.2020260
1202.509, 1.010254
1202.991, 3.412598
1203.473, 5.438232
1203.955, 5.866333
1204.437, 5.217285
1204.919, 2.918579
1205.401, 9.5210001E-03
1205.883, 1.403931
1206.365, 1.349609
1206.848, 0.6184080
1207.330, 4.701782
1207.812, 8.004395
1208.294, 8.001343
1208.776, 6.703857
1209.258, 4.987183
1209.740, 3.189209
1210.222, 2.024780
1210.705, 1.483032
1211.187, 2.047363
1211.669, 3.877319
1212.151, 6.208618
1212.633, 10.08179
1213.115, 12.75525
1213.597, 10.85303
1214.079, 6.087036
1214.562, 4.376343
1215.044, 5.670410
1215.526, 8.372437
1216.008, 12.62036
1216.490, 15.45398
1216.972, 12.94617
1217.454, 9.452515
1217.936, 8.408936
1218.418, 9.328491
1218.901, 9.701660
1219.383, 9.542725
1219.865, 9.451050
1220.347, 9.458252
1220.829, 10.07129
1221.311, 12.64258
1221.793, 15.09460
1222.275, 15.81372
1222.757, 15.02039
1223.240, 14.18518
1223.722, 13.34485
1224.204, 12.71179
1224.686, 12.40808
1225.168, 12.25867
1225.650, 12.38940
1226.132, 12.43237
1226.614, 11.98755
1227.096, 11.18213
1227.579, 10.99268
1228.061, 11.41748
1228.543, 12.54700
1229.025, 14.92871
1229.507, 16.74695
1229.989, 15.83105
1230.471, 14.89673
1230.953, 16.29529
1231.436, 19.66553
1231.918, 21.81763
1232.400, 22.77710
1232.882, 22.60046
1233.364, 20.71265
1233.846, 18.82483
1234.328, 17.34631
1234.810, 16.49585
1235.292, 16.89294
1235.775, 18.39392
1236.257, 18.31482
1236.739, 16.89966
1237.221, 16.08044
1237.703, 17.40076
1238.185, 18.47058
1238.667, 18.59473
1239.149, 18.16516
1239.632, 16.81384
1240.114, 15.07458
1240.596, 16.51172
1241.078, 20.22339
1241.560, 22.70386
1242.042, 20.84717
1242.524, 19.78064
1243.006, 21.71826
1243.489, 23.71741
1243.971, 23.16895
1244.453, 20.76794
1244.935, 18.87073
1245.417, 17.53992
1245.899, 17.32043
1246.381, 19.55151
1246.863, 21.09033
1247.345, 21.26086
1247.828, 20.60303
1248.310, 20.22583
1248.792, 20.09619
1249.274, 18.80347
1249.756, 16.74548
1250.238, 16.08057
1250.720, 17.81543
1251.202, 19.14868
1251.684, 20.16138
1252.167, 20.08521
1252.649, 17.20789
1253.131, 13.76062
1253.613, 14.20300
1254.095, 17.16699
1254.577, 19.57666
1255.059, 20.98865
1255.541, 21.71375
1256.023, 21.43616
1256.506, 20.70581
1256.988, 20.07922
1257.470, 19.81189
1257.952, 19.92859
1258.434, 20.00012
1258.916, 20.27429
1259.398, 21.11987
1259.880, 21.51697
1260.363, 21.50244
1260.845, 20.75427
1261.327, 17.91956
1261.809, 15.01208
1262.291, 14.34412
1262.773, 15.08398
1263.255, 15.28589
1263.737, 14.93250
1264.219, 13.49304
1264.702, 10.78357
1265.184, 8.533203
1265.666, 8.770508
1266.148, 9.474365
1266.630, 8.781128
1267.112, 7.549805
1267.594, 7.284912
1268.076, 7.965088
1268.559, 9.192017
1269.041, 11.00476
1269.523, 12.03369
1270.005, 10.97485
1270.487, 9.340576
1270.969, 7.209351
1271.451, 5.345215
1271.933, 5.395752
1272.416, 7.060425
1272.898, 6.949707
1273.380, 5.041992
1273.862, 3.838013
1274.344, 5.202271
1274.826, 7.115967
1275.308, 9.347412
1275.790, 11.20410
1276.272, 11.76025
1276.755, 11.22668
1277.237, 10.25305
1277.719, 8.899658
1278.201, 7.304688
1278.683, 5.027588
1279.165, 3.202148
1279.647, 1.736572
1280.129, 1.308472
1280.611, 3.104370
1281.094, 6.304810
1281.576, 10.16479
1282.058, 14.05884
1282.540, 15.10107
1283.022, 10.54053
1283.504, 6.804565
1283.986, 4.457275
1284.468, 3.141602
1284.950, 3.084595
1285.433, 3.348755
1285.915, 2.164551
1286.397, 2.191406
1286.879, 1.922729
1287.361, 0.9318850
1287.843, 1.334595
1288.325, 8.9722000E-02
1288.807, 0.7491460
1289.290, 1.052002
1289.772, 3.390747
1290.254, 4.610840
1290.736, 4.851318
1291.218, 4.554688
1291.700, 3.819214
1292.182, 4.185059
1292.664, 5.722290
1293.146, 6.886353
1293.629, 6.245850
1294.111, 5.295776
1294.593, 5.009766
1295.075, 4.767578
1295.557, 3.475830
1296.039, 1.699707
1296.521, 0.9516600
1297.003, 1.175293
1297.486, 1.290894
1297.968, 0.3592530
1298.450, 0.1291500
1298.932, 1.619385
1299.414, 3.161987
1299.896, 2.457397
1300.378, 0.4820560
1300.860, 5.0048999E-02
1301.343, 0.7904050
1301.825, 0.0000000E+00
##END=



