##NAMES=Botallackite
##RRUFFID=R070066
##IDEAL CHEMISTRY=Cu_2_Cl(OH)_3_
##LOCALITY=Levante mine, St. Just, Cornwall, England
##OWNER=RRUFF
##SOURCE=Bob Jenkins
##DESCRIPTION=Pale greenish blue bladed crystals
##STATUS=The identification of this mineral is confirmed by single-crystal X-ray diffraction and chemical analysis.
##URL=rruff.info/R070066
##MEASURED CHEMISTRY=Cu_2.01_Cl_0.99_(OH)_3_
156.5045, 0.0000000E+00
156.9867, 11.80151
157.4688, 23.06360
157.9509, 40.92322
158.4330, 34.07080
158.9151, 10.35791
159.3972, 1.270996
159.8794, 9.587769
160.3615, 23.36340
160.8436, 31.71936
161.3257, 32.19873
161.8078, 22.69238
162.2899, 13.28674
162.7721, 6.614136
163.2542, 5.848755
163.7363, 17.68164
164.2184, 35.27448
164.7005, 46.47510
165.1826, 44.19135
165.6648, 32.62811
166.1469, 31.46527
166.6290, 45.88934
167.1111, 64.81848
167.5932, 91.74780
168.0753, 123.0333
168.5575, 149.9182
169.0396, 167.2491
169.5217, 178.4076
170.0038, 197.3730
170.4859, 222.2274
170.9680, 258.8971
171.4502, 294.6813
171.9323, 329.9138
172.4144, 369.5946
172.8965, 417.3189
173.3786, 466.8288
173.8607, 487.4678
174.3429, 466.9319
174.8250, 435.8931
175.3071, 392.2863
175.7892, 343.4320
176.2713, 300.6847
176.7534, 269.4556
177.2356, 245.6924
177.7177, 215.6804
178.1998, 171.6437
178.6819, 132.6263
179.1640, 104.4119
179.6461, 84.44446
180.1283, 69.90765
180.6104, 60.68616
181.0925, 55.10571
181.5746, 48.52472
182.0567, 41.58521
182.5388, 32.52448
183.0210, 3.719727
183.5031, 15.41125
183.9852, 19.14667
184.4673, 15.44452
184.9494, 17.06653
185.4315, 12.31268
185.9137, 22.24249
186.3958, 7.872375
186.8779, 11.11694
187.3600, 14.94550
187.8421, 2.009338
188.3242, 19.26404
188.8064, 2.605591
189.2885, 1.071472
189.7706, 7.403870
190.2527, 0.8871460
190.7348, 0.9879760
191.2169, 12.15436
191.6991, 16.99872
192.1812, 8.794739
192.6633, 17.76587
193.1454, 14.58807
193.6275, 25.15070
194.1096, 31.06226
194.5918, 26.88519
195.0739, 18.33759
195.5560, 16.30237
196.0381, 24.44177
196.5202, 36.04468
197.0023, 43.17975
197.4845, 46.36810
197.9666, 46.82971
198.4487, 41.74304
198.9308, 34.87750
199.4129, 33.91461
199.8950, 41.63098
200.3772, 50.11005
200.8593, 47.59894
201.3414, 36.15149
201.8235, 29.89478
202.3056, 36.63531
202.7877, 49.78131
203.2699, 60.02844
203.7520, 66.42603
204.2341, 69.62970
204.7162, 69.17310
205.1983, 65.73743
205.6804, 61.27289
206.1626, 54.47284
206.6447, 47.61920
207.1268, 43.87952
207.6089, 43.68207
208.0910, 45.32251
208.5731, 48.72186
209.0553, 53.09631
209.5374, 55.99463
210.0195, 52.70331
210.5016, 49.87244
210.9837, 57.95044
211.4658, 78.48407
211.9480, 96.59125
212.4301, 101.2309
212.9122, 95.95685
213.3943, 88.99738
213.8764, 79.57019
214.3585, 73.25861
214.8407, 68.31604
215.3228, 64.65948
215.8049, 66.14227
216.2870, 79.81238
216.7691, 98.54376
217.2512, 107.4464
217.7334, 99.10486
218.2155, 89.73346
218.6976, 96.16058
219.1797, 117.0462
219.6618, 132.4205
220.1439, 129.7858
220.6261, 118.3319
221.1082, 115.1765
221.5903, 124.1108
222.0724, 134.3957
222.5545, 136.0462
223.0366, 131.0408
223.5188, 133.4667
224.0009, 153.9264
224.4830, 178.6000
224.9651, 184.8650
225.4472, 167.9821
225.9293, 154.1603
226.4115, 161.5602
226.8936, 184.6348
227.3757, 203.6273
227.8578, 212.0193
228.3399, 216.8659
228.8220, 228.4393
229.3041, 247.1202
229.7863, 261.9730
230.2684, 263.7311
230.7505, 258.6119
231.2326, 261.0083
231.7147, 274.4557
232.1968, 293.6245
232.6790, 315.5460
233.1611, 339.6274
233.6432, 359.9764
234.1253, 368.4412
234.6074, 374.0580
235.0895, 393.5256
235.5717, 431.1382
236.0538, 469.7136
236.5359, 492.1917
237.0180, 502.0656
237.5001, 513.7144
237.9822, 529.6962
238.4644, 548.9268
238.9465, 570.7717
239.4286, 595.2078
239.9107, 620.0594
240.3928, 643.1143
240.8749, 664.9620
241.3571, 689.6307
241.8392, 718.4026
242.3213, 748.7537
242.8034, 781.5943
243.2855, 817.2887
243.7676, 841.3745
244.2498, 842.7601
244.7319, 830.1512
245.2140, 833.0840
245.6961, 862.6055
246.1782, 891.9545
246.6603, 910.2827
247.1425, 919.2037
247.6246, 928.4162
248.1067, 943.1803
248.5888, 957.4702
249.0709, 958.9260
249.5530, 945.9373
250.0352, 927.6276
250.5173, 904.6064
250.9994, 879.0172
251.4815, 855.9072
251.9636, 837.5395
252.4457, 818.8263
252.9279, 790.7282
253.4100, 751.2445
253.8921, 715.5753
254.3742, 691.3175
254.8563, 669.9114
255.3384, 639.3256
255.8206, 597.3146
256.3027, 554.4382
256.7848, 522.6482
257.2669, 503.7141
257.7490, 481.7245
258.2311, 454.6780
258.7133, 425.5358
259.1954, 393.2664
259.6775, 359.2349
260.1596, 331.5383
260.6417, 317.9639
261.1238, 318.0632
261.6060, 312.2873
262.0881, 296.3456
262.5702, 279.4568
263.0523, 265.2274
263.5344, 253.5298
264.0165, 243.5539
264.4987, 234.9196
264.9808, 227.5164
265.4629, 220.7034
265.9450, 217.2975
266.4271, 211.1212
266.9092, 197.0294
267.3914, 180.4163
267.8735, 169.2374
268.3556, 166.6467
268.8377, 169.8198
269.3198, 173.0442
269.8019, 178.8658
270.2841, 180.2876
270.7662, 171.5923
271.2483, 161.7361
271.7304, 160.9774
272.2125, 170.5235
272.6946, 180.8474
273.1768, 179.6018
273.6589, 162.3834
274.1410, 147.3921
274.6231, 129.9578
275.1052, 118.1896
275.5873, 120.3794
276.0695, 133.6615
276.5516, 146.5403
277.0337, 148.5158
277.5158, 139.1866
277.9979, 136.3616
278.4800, 152.5219
278.9622, 161.6342
279.4443, 149.4166
279.9264, 126.0873
280.4085, 110.4232
280.8906, 114.0515
281.3727, 131.8115
281.8549, 139.1613
282.3370, 124.6968
282.8191, 112.8344
283.3012, 109.1855
283.7833, 109.4328
284.2654, 108.6768
284.7476, 105.0160
285.2297, 100.0676
285.7118, 97.18988
286.1939, 98.07477
286.6760, 96.24750
287.1581, 87.41119
287.6403, 78.92358
288.1224, 76.56445
288.6045, 80.66803
289.0866, 85.69354
289.5687, 85.29700
290.0508, 78.63812
290.5330, 73.29803
291.0151, 68.38977
291.4972, 66.27142
291.9793, 70.38586
292.4614, 78.20477
292.9435, 83.57495
293.4257, 79.60480
293.9078, 69.11072
294.3899, 63.33783
294.8720, 64.31207
295.3541, 67.05511
295.8362, 70.31891
296.3184, 72.74744
296.8005, 72.53467
297.2826, 67.84430
297.7647, 64.45483
298.2468, 72.33612
298.7289, 92.93860
299.2111, 103.5590
299.6932, 87.10742
300.1753, 65.07758
300.6574, 60.38831
301.1395, 75.91150
301.6216, 91.85168
302.1038, 93.33466
302.5859, 84.17297
303.0680, 77.75690
303.5501, 76.78339
304.0322, 78.90930
304.5143, 83.12982
304.9964, 88.66339
305.4785, 91.19495
305.9607, 86.83459
306.4428, 80.17780
306.9249, 77.24017
307.4070, 78.53284
307.8891, 81.68243
308.3712, 85.57837
308.8534, 90.06909
309.3355, 94.21674
309.8176, 98.90936
310.2997, 102.4236
310.7818, 103.4003
311.2639, 102.3028
311.7461, 100.4785
312.2282, 98.24805
312.7103, 96.14600
313.1924, 95.85229
313.6745, 98.93555
314.1566, 100.4535
314.6388, 96.05573
315.1209, 90.95380
315.6030, 93.46503
316.0851, 105.3235
316.5672, 118.0485
317.0493, 120.5376
317.5315, 108.8860
318.0136, 100.5308
318.4957, 97.21014
318.9778, 95.42822
319.4599, 93.50159
319.9420, 91.31970
320.4242, 89.29254
320.9063, 87.69391
321.3884, 86.54395
321.8705, 86.17688
322.3526, 89.48010
322.8347, 90.26959
323.3169, 86.41528
323.7990, 79.76398
324.2811, 72.05634
324.7632, 64.02820
325.2453, 56.69849
325.7274, 52.29431
326.2096, 52.05359
326.6917, 52.14801
327.1738, 52.42065
327.6559, 52.80127
328.1380, 53.82300
328.6201, 55.20276
329.1023, 55.51459
329.5844, 53.48828
330.0665, 49.09082
330.5486, 42.60016
331.0307, 31.20013
331.5128, 21.19849
331.9950, 15.51373
332.4771, 13.01862
332.9592, 11.74469
333.4413, 11.14703
333.9234, 10.73309
334.4055, 8.714478
334.8877, 4.079956
335.3698, 2.486328
335.8519, 10.07581
336.3340, 19.91614
336.8161, 25.50458
337.2982, 26.09100
337.7804, 21.85291
338.2625, 8.535339
338.7446, 10.74286
339.2267, 21.24054
339.7088, 17.14362
340.1909, 8.679199
340.6731, 7.514587
341.1552, 12.70306
341.6373, 16.42004
342.1194, 16.13245
342.6015, 13.60052
343.0836, 10.06122
343.5658, 5.708252
344.0479, 1.992493
344.5300, 0.5623780
345.0121, 1.538574
345.4942, 0.6473390
345.9763, 10.61188
346.4585, 18.34222
346.9406, 20.77704
347.4227, 18.40741
347.9048, 9.809082
348.3869, 6.102783
348.8690, 21.98596
349.3512, 23.98749
349.8333, 0.3162230
350.3154, 13.95245
350.7975, 8.507202
351.2796, 0.8095090
351.7617, 2.381165
352.2439, 3.619934
352.7260, 8.740845
353.2081, 4.609070
353.6902, 8.704163
354.1723, 13.54858
354.6544, 1.832214
355.1366, 13.57996
355.6187, 14.28778
356.1008, 9.417847
356.5829, 7.103943
357.0650, 11.06500
357.5471, 17.22144
358.0293, 17.54974
358.5114, 10.22095
358.9935, 2.924744
359.4756, 5.976196
359.9577, 12.33350
360.4398, 11.81683
360.9220, 5.096069
361.4041, 1.557861
361.8862, 3.799500
362.3683, 1.979431
362.8504, 2.946228
363.3326, 12.84326
363.8147, 21.70990
364.2968, 24.28009
364.7789, 23.66547
365.2610, 25.26910
365.7431, 31.81152
366.2253, 39.26208
366.7074, 44.47736
367.1895, 47.43018
367.6716, 47.38422
368.1537, 42.71478
368.6358, 36.68225
369.1180, 34.70331
369.6001, 36.79034
370.0822, 40.97321
370.5643, 46.85095
371.0464, 54.47205
371.5285, 64.59888
372.0107, 77.10095
372.4928, 89.84406
372.9749, 101.1916
373.4570, 111.0807
373.9391, 119.3224
374.4212, 124.8950
374.9034, 130.1700
375.3855, 134.2995
375.8676, 139.0057
376.3497, 146.9281
376.8318, 159.2496
377.3139, 175.1237
377.7961, 193.8863
378.2782, 220.9904
378.7603, 239.8696
379.2424, 241.0060
379.7245, 242.7600
380.2066, 258.1723
380.6888, 286.1109
381.1709, 315.5639
381.6530, 336.0701
382.1351, 349.6635
382.6172, 373.8260
383.0993, 416.4876
383.5815, 456.8395
384.0636, 483.8307
384.5457, 506.2280
385.0278, 534.9611
385.5099, 574.1232
385.9920, 616.7691
386.4742, 655.1213
386.9563, 689.5020
387.4384, 726.0375
387.9205, 767.9688
388.4026, 810.1746
388.8847, 845.4572
389.3669, 874.9945
389.8490, 909.0530
390.3311, 954.1631
390.8132, 1004.183
391.2953, 1051.750
391.7774, 1096.847
392.2596, 1142.875
392.7417, 1192.982
393.2238, 1245.139
393.7059, 1289.673
394.1880, 1326.663
394.6701, 1357.215
395.1523, 1376.173
395.6344, 1391.075
396.1165, 1415.408
396.5986, 1450.435
397.0807, 1479.946
397.5628, 1483.970
398.0450, 1458.216
398.5271, 1429.618
399.0092, 1393.087
399.4913, 1358.618
399.9734, 1335.008
400.4555, 1316.062
400.9377, 1290.006
401.4197, 1250.510
401.9019, 1200.725
402.3840, 1146.288
402.8661, 1084.187
403.3482, 1025.799
403.8303, 976.4371
404.3124, 928.3171
404.7946, 873.9261
405.2767, 814.3807
405.7588, 760.8297
406.2409, 724.5297
406.7230, 699.8735
407.2051, 669.1590
407.6873, 629.9387
408.1694, 589.2782
408.6515, 550.8126
409.1336, 515.9879
409.6157, 487.6937
410.0978, 469.3035
410.5800, 451.4731
411.0621, 427.8484
411.5442, 401.0657
412.0263, 376.4094
412.5084, 355.5303
412.9905, 335.1445
413.4727, 311.0623
413.9548, 281.1014
414.4369, 262.1478
414.9190, 265.9446
415.4011, 269.5006
415.8832, 257.2207
416.3654, 234.2972
416.8475, 215.1540
417.3296, 207.9867
417.8117, 208.9145
418.2938, 206.4844
418.7759, 199.6425
419.2581, 190.7575
419.7402, 174.0945
420.2223, 160.4255
420.7044, 161.1861
421.1865, 174.5028
421.6686, 185.8312
422.1508, 179.5908
422.6329, 159.3869
423.1150, 151.4317
423.5971, 161.5151
424.0792, 171.9135
424.5613, 172.0126
425.0435, 168.7697
425.5256, 171.0879
426.0077, 182.0374
426.4898, 194.6583
426.9719, 205.4364
427.4540, 213.6526
427.9362, 214.8925
428.4183, 205.8313
428.9004, 198.1608
429.3825, 205.9312
429.8646, 229.1812
430.3467, 247.8444
430.8289, 254.4368
431.3110, 261.9130
431.7931, 280.2804
432.2752, 305.6703
432.7573, 327.8317
433.2394, 341.9598
433.7216, 351.1396
434.2037, 361.3369
434.6858, 367.3235
435.1679, 384.8287
435.6500, 425.5011
436.1321, 466.3950
436.6143, 491.0192
437.0964, 502.7424
437.5785, 516.7143
438.0606, 544.1797
438.5427, 581.5643
439.0248, 614.6230
439.5070, 641.0390
439.9891, 669.2441
440.4712, 708.4634
440.9533, 746.7672
441.4354, 771.9401
441.9175, 782.1781
442.3997, 791.8868
442.8818, 810.4846
443.3639, 835.8332
443.8460, 865.2654
444.3281, 900.0575
444.8102, 928.1932
445.2924, 940.1683
445.7745, 937.7165
446.2566, 933.7670
446.7387, 934.7699
447.2208, 926.6035
447.7029, 900.8272
448.1851, 863.6301
448.6672, 821.8115
449.1493, 777.8750
449.6314, 735.6555
450.1135, 700.4466
450.5956, 673.6001
451.0778, 645.7884
451.5599, 623.0595
452.0420, 593.0681
452.5241, 546.1513
453.0062, 491.0164
453.4883, 439.7130
453.9705, 397.1926
454.4526, 361.9114
454.9347, 331.0430
455.4168, 304.4446
455.8989, 285.3961
456.3810, 281.9197
456.8632, 277.3283
457.3453, 258.6441
457.8274, 229.2591
458.3095, 201.0074
458.7916, 176.1405
459.2737, 156.0992
459.7559, 145.7373
460.2380, 143.2138
460.7201, 134.7047
461.2022, 112.7362
461.6843, 86.39264
462.1664, 73.46967
462.6486, 79.71649
463.1307, 78.92572
463.6128, 63.16626
464.0949, 44.24664
464.5770, 28.60480
465.0591, 17.37732
465.5413, 11.70990
466.0234, 12.95325
466.5055, 18.18701
466.9876, 16.80920
467.4697, 2.011230
467.9518, 6.300232
468.4340, 1.297729
468.9161, 6.420654
469.3982, 9.852600
469.8803, 8.894165
470.3624, 7.641052
470.8445, 11.58557
471.3267, 17.88434
471.8088, 16.55884
472.2909, 5.419312
472.7730, 5.239502
473.2551, 12.35168
473.7372, 14.62537
474.2194, 8.782349
474.7015, 8.587891
475.1836, 20.15344
475.6657, 11.31714
476.1478, 2.635132
476.6299, 0.6116940
477.1121, 21.43652
477.5942, 41.09796
478.0763, 44.01819
478.5584, 32.18884
479.0405, 26.84009
479.5226, 30.15717
480.0048, 37.76117
480.4869, 53.63336
480.9690, 70.94476
481.4511, 83.03613
481.9332, 89.65900
482.4153, 95.77283
482.8975, 108.0698
483.3796, 124.5661
483.8617, 128.6531
484.3438, 112.6399
484.8259, 101.7946
485.3080, 112.0874
485.7902, 130.9405
486.2723, 144.6898
486.7544, 150.3627
487.2365, 158.3290
487.7186, 178.3636
488.2007, 203.8669
488.6829, 222.9387
489.1650, 234.1519
489.6471, 241.4032
490.1292, 244.8597
490.6113, 245.1508
491.0934, 252.0602
491.5756, 272.4233
492.0577, 290.6045
492.5398, 301.0709
493.0219, 309.0521
493.5040, 322.3312
493.9861, 341.5974
494.4683, 358.7191
494.9504, 363.4769
495.4325, 355.0652
495.9146, 348.3924
496.3967, 342.6473
496.8788, 341.1898
497.3610, 349.4817
497.8431, 359.9572
498.3252, 364.8538
498.8073, 362.6737
499.2894, 357.9586
499.7715, 354.0636
500.2536, 349.8138
500.7357, 341.5266
501.2179, 328.7919
501.7000, 317.9807
502.1821, 314.3816
502.6642, 315.2483
503.1463, 308.7773
503.6284, 288.6990
504.1106, 271.6992
504.5927, 261.6749
505.0748, 255.6504
505.5569, 252.8039
506.0390, 251.2885
506.5211, 246.2720
507.0033, 232.6706
507.4854, 212.2064
507.9675, 196.4810
508.4496, 187.2404
508.9317, 179.5561
509.4138, 172.1179
509.8960, 165.7054
510.3781, 161.6514
510.8602, 159.9484
511.3423, 157.8011
511.8244, 153.3129
512.3066, 147.1910
512.7887, 140.9545
513.2708, 134.6656
513.7529, 127.1209
514.2350, 116.7318
514.7172, 105.3536
515.1993, 98.47565
515.6814, 98.87244
516.1635, 96.81439
516.6456, 89.76160
517.1277, 80.82159
517.6099, 72.55981
518.0920, 64.79144
518.5741, 55.20776
519.0562, 41.74286
519.5383, 27.26324
520.0204, 21.24750
520.5026, 27.28040
520.9847, 31.87982
521.4668, 34.35315
521.9489, 33.50800
522.4310, 25.04456
522.9131, 11.37402
523.3953, 2.860657
523.8774, 8.208130
524.3595, 18.56079
524.8416, 24.17957
525.3237, 25.10107
525.8058, 20.24219
526.2880, 7.682007
526.7701, 6.027893
527.2522, 10.30560
527.7343, 1.127686
528.2164, 2.981506
528.6985, 4.745117
529.1807, 10.97491
529.6628, 5.938538
530.1449, 4.794983
530.6270, 9.947693
531.1091, 4.804626
531.5912, 4.459290
532.0734, 8.486450
532.5555, 6.809143
533.0376, 3.545593
533.5197, 4.460022
534.0018, 9.053162
534.4839, 0.1547850
534.9661, 14.14935
535.4482, 17.12170
535.9303, 0.6475220
536.4124, 19.54272
536.8945, 26.02924
537.3766, 23.60431
537.8588, 17.26373
538.3409, 8.164978
538.8230, 0.2053220
539.3051, 3.176208
539.7872, 2.109375
540.2693, 0.5456540
540.7515, 7.924927
541.2336, 12.99567
541.7157, 13.65564
542.1978, 12.33923
542.6799, 10.71790
543.1620, 9.385559
543.6442, 8.983826
544.1263, 10.61212
544.6084, 13.50439
545.0905, 15.39362
545.5726, 16.74298
546.0547, 14.22748
546.5369, 3.144043
547.0190, 9.576843
547.5011, 13.08502
547.9832, 6.167419
548.4653, 0.3734130
548.9474, 0.9622190
549.4296, 3.325623
549.9116, 0.1020510
550.3937, 6.699341
550.8759, 5.419495
551.3580, 9.709534
551.8401, 28.46094
552.3222, 28.49994
552.8043, 0.9721680
553.2864, 19.37726
553.7686, 15.83209
554.2507, 11.27820
554.7328, 15.47260
555.2149, 24.10388
555.6970, 28.03540
556.1791, 23.06299
556.6613, 15.63379
557.1434, 12.50854
557.6255, 12.34143
558.1076, 9.774719
558.5897, 3.470154
559.0718, 2.179321
559.5540, 4.427124
560.0361, 3.107483
560.5182, 2.629089
561.0003, 22.25336
561.4824, 33.42523
561.9645, 23.90698
562.4467, 9.321716
562.9288, 5.637573
563.4109, 13.64282
563.8930, 22.39160
564.3751, 22.30725
564.8572, 17.02643
565.3394, 21.25171
565.8215, 38.33435
566.3036, 50.28888
566.7857, 50.57654
567.2678, 44.64716
567.7499, 37.21039
568.2321, 28.43475
568.7142, 21.95685
569.1963, 20.61707
569.6784, 20.36615
570.1605, 17.62836
570.6426, 13.50403
571.1248, 10.88129
571.6069, 10.76471
572.0890, 12.24249
572.5711, 13.86066
573.0532, 15.23529
573.5353, 19.47345
574.0175, 32.10120
574.4996, 40.67725
574.9817, 40.24896
575.4638, 34.64301
575.9459, 28.02063
576.4280, 21.28546
576.9102, 15.09747
577.3923, 7.515686
577.8744, 1.443970
578.3565, 5.871704
578.8386, 21.04205
579.3207, 31.71283
579.8029, 27.96301
580.2850, 16.34412
580.7671, 13.36304
581.2492, 25.39252
581.7313, 34.74194
582.2134, 42.93604
582.6956, 46.99384
583.1777, 43.50714
583.6598, 34.64819
584.1419, 23.94586
584.6240, 12.28400
585.1061, 3.193970
585.5883, 3.617737
586.0704, 12.77954
586.5525, 22.77094
587.0346, 34.70837
587.5167, 42.08008
587.9988, 36.33563
588.4810, 21.59277
588.9631, 14.72815
589.4452, 21.70233
589.9273, 27.28729
590.4094, 26.55060
590.8915, 22.91223
591.3737, 19.69507
591.8558, 17.00983
592.3379, 13.17407
592.8200, 5.780762
593.3021, 2.432922
593.7842, 3.056030
594.2664, 4.922852
594.7485, 12.47424
595.2306, 19.47107
595.7127, 24.16803
596.1948, 23.37695
596.6769, 18.96118
597.1591, 18.36981
597.6412, 28.58551
598.1233, 37.91425
598.6054, 35.97223
599.0875, 28.08429
599.5696, 24.33801
600.0518, 26.77759
600.5339, 31.33118
601.0160, 34.51147
601.4981, 36.30157
601.9802, 36.63354
602.4623, 36.57086
602.9445, 33.06421
603.4266, 21.54468
603.9087, 9.810364
604.3908, 4.120605
604.8729, 3.370117
605.3550, 2.959167
605.8372, 3.211304
606.3193, 6.169495
606.8014, 11.74921
607.2835, 42.67126
607.7656, 55.43866
608.2477, 39.67169
608.7299, 16.05121
609.2120, 7.488098
609.6941, 14.66028
610.1762, 16.85089
610.6583, 10.81567
611.1404, 6.358154
611.6226, 5.241577
612.1047, 6.137329
612.5868, 8.167358
613.0689, 10.98395
613.5510, 13.85931
614.0331, 16.48370
614.5153, 18.73456
614.9974, 20.97089
615.4795, 23.00659
615.9616, 21.76019
616.4437, 4.584839
616.9258, 17.41339
617.4080, 24.32703
617.8901, 25.85956
618.3722, 5.934204
618.8543, 14.47180
619.3364, 11.72864
619.8185, 8.519592
620.3007, 20.91388
620.7828, 4.249268
621.2649, 16.46094
621.7470, 17.24078
622.2291, 23.25793
622.7112, 17.91461
623.1934, 16.08319
623.6755, 25.59967
624.1576, 28.82812
624.6397, 22.17670
625.1218, 28.50909
625.6039, 11.63538
626.0861, 15.11981
626.5682, 27.38605
627.0503, 21.28394
627.5324, 27.80023
628.0145, 29.49323
628.4966, 9.285095
628.9788, 27.01526
629.4609, 28.30328
629.9430, 12.74518
630.4251, 29.21582
630.9072, 16.02551
631.3893, 13.46191
631.8715, 18.88959
632.3536, 16.00421
632.8357, 26.21924
633.3178, 23.80920
633.7999, 20.26880
634.2820, 13.91357
634.7642, 11.60486
635.2463, 14.83099
635.7284, 18.20270
636.2105, 19.91028
636.6926, 20.86340
637.1747, 21.55933
637.6569, 22.39301
638.1390, 24.30334
638.6211, 29.06165
639.1032, 35.71240
639.5853, 39.22748
640.0674, 39.19006
640.5496, 38.89813
641.0317, 39.26715
641.5138, 40.00903
641.9959, 40.10486
642.4780, 39.34149
642.9601, 41.49292
643.4423, 53.10382
643.9244, 61.56781
644.4065, 58.68054
644.8886, 50.29706
645.3707, 43.12866
645.8528, 39.09924
646.3350, 38.31091
646.8171, 41.89325
647.2992, 48.27252
647.7813, 51.18567
648.2634, 50.16589
648.7455, 49.36639
649.2277, 49.45862
649.7098, 51.02808
650.1919, 56.28235
650.6740, 64.85168
651.1561, 68.00470
651.6382, 60.89435
652.1204, 54.70392
652.6025, 52.92035
653.0846, 53.97357
653.5667, 58.29065
654.0488, 65.55493
654.5309, 70.82837
655.0131, 69.69000
655.4952, 64.70374
655.9773, 61.62994
656.4594, 60.44946
656.9415, 61.73065
657.4236, 66.29761
657.9058, 71.87305
658.3879, 77.00446
658.8700, 81.75146
659.3521, 84.80713
659.8342, 83.46454
660.3163, 83.17426
660.7985, 86.34680
661.2806, 90.82587
661.7627, 95.83087
662.2448, 100.2720
662.7269, 101.4742
663.2090, 97.00256
663.6912, 89.92084
664.1733, 84.91968
664.6554, 83.01154
665.1375, 86.99274
665.6196, 98.99707
666.1017, 110.1605
666.5839, 113.5023
667.0660, 110.3026
667.5481, 107.5449
668.0302, 104.8260
668.5123, 102.9072
668.9944, 101.8943
669.4766, 101.6813
669.9587, 103.1747
670.4408, 105.0088
670.9229, 105.9556
671.4050, 105.4745
671.8871, 103.9431
672.3693, 99.97614
672.8514, 95.22400
673.3335, 97.57404
673.8156, 108.2452
674.2977, 115.9839
674.7798, 113.6268
675.2620, 104.9670
675.7441, 99.88947
676.2262, 101.6227
676.7083, 99.69073
677.1904, 91.46216
677.6725, 82.59412
678.1547, 75.31049
678.6368, 69.02972
679.1189, 61.85706
679.6010, 53.01953
680.0831, 48.26746
680.5652, 57.05499
681.0474, 70.60333
681.5295, 72.09467
682.0116, 62.58441
682.4937, 54.49042
682.9758, 53.18945
683.4579, 54.61823
683.9401, 52.36884
684.4222, 45.39111
684.9043, 43.04370
685.3864, 49.64893
685.8685, 55.04602
686.3506, 58.08612
686.8328, 57.59357
687.3149, 49.44006
687.7970, 34.34973
688.2791, 24.39624
688.7612, 27.81934
689.2433, 36.08575
689.7255, 45.70312
690.2076, 53.63672
690.6897, 50.44690
691.1718, 35.18036
691.6539, 20.59979
692.1360, 19.56085
692.6182, 29.20923
693.1003, 33.89508
693.5824, 32.69128
694.0645, 29.20190
694.5466, 21.33813
695.0287, 14.53571
695.5109, 14.60376
695.9930, 19.41498
696.4751, 21.17505
696.9572, 15.02118
697.4393, 11.10602
697.9214, 15.97424
698.4036, 23.23553
698.8857, 26.96851
699.3678, 26.68182
699.8499, 23.34747
700.3320, 17.06616
700.8141, 11.04755
701.2963, 11.29199
701.7784, 17.48267
702.2605, 24.08105
702.7426, 30.95050
703.2247, 37.07971
703.7068, 43.37152
704.1890, 47.51630
704.6711, 42.88019
705.1532, 23.47614
705.6353, 11.61511
706.1174, 12.96210
706.5995, 17.06830
707.0817, 21.46289
707.5638, 23.98334
708.0459, 23.25629
708.5280, 19.12549
709.0101, 12.13470
709.4922, 2.571533
709.9744, 17.16888
710.4565, 14.31055
710.9386, 3.448608
711.4207, 17.98706
711.9028, 22.14563
712.3849, 20.00000
712.8671, 15.55518
713.3492, 8.918213
713.8313, 6.613892
714.3134, 14.02972
714.7955, 16.71094
715.2776, 7.210938
715.7598, 3.584167
716.2419, 9.554138
716.7240, 10.22235
717.2061, 5.096252
717.6882, 12.25378
718.1703, 25.60211
718.6525, 19.59705
719.1346, 6.507507
719.6167, 4.280579
720.0988, 13.05762
720.5809, 22.13031
721.0630, 25.25897
721.5452, 23.72119
722.0273, 18.30060
722.5094, 8.586548
722.9915, 4.878540
723.4736, 9.880554
723.9557, 15.01263
724.4379, 15.65967
724.9200, 13.54449
725.4021, 12.42993
725.8842, 13.24176
726.3663, 11.36951
726.8484, 1.015076
727.3306, 6.225281
727.8127, 1.261780
728.2948, 8.435791
728.7769, 11.93958
729.2590, 7.421509
729.7411, 2.634888
730.2233, 3.478027
730.7054, 7.816711
731.1875, 13.05219
731.6696, 18.79657
732.1517, 23.37225
732.6339, 26.82056
733.1160, 27.38232
733.5981, 23.22369
734.0802, 15.82043
734.5623, 14.24115
735.0444, 23.25061
735.5266, 27.81671
736.0087, 22.07031
736.4908, 15.65808
736.9729, 14.51129
737.4550, 16.58710
737.9371, 16.57239
738.4193, 12.55878
738.9014, 10.31030
739.3835, 14.16162
739.8656, 19.20587
740.3477, 19.33282
740.8298, 16.45654
741.3120, 17.48608
741.7941, 24.99579
742.2762, 31.85022
742.7583, 27.40649
743.2404, 0.5687260
743.7225, 16.85620
744.2047, 26.65948
744.6868, 29.25018
745.1689, 3.029602
745.6510, 14.01068
746.1331, 10.08160
746.6152, 5.540283
747.0973, 21.75470
747.5794, 0.2802120
748.0615, 15.60187
748.5436, 16.34644
749.0258, 24.37769
749.5079, 18.08392
749.9900, 16.42487
750.4721, 29.02417
750.9542, 33.02069
751.4363, 24.22119
751.9185, 33.35870
752.4006, 11.78937
752.8827, 16.18799
753.3648, 32.14642
753.8469, 23.83282
754.3290, 32.22052
754.8112, 14.86884
755.2933, 16.26276
755.7754, 23.67810
756.2575, 28.14771
756.7396, 29.57611
757.2217, 29.21191
757.7039, 27.17987
758.1860, 23.86670
758.6681, 17.68738
759.1502, 7.649597
759.6323, 7.545471
760.1144, 32.42560
760.5966, 48.08209
761.0787, 35.24091
761.5608, 17.13812
762.0429, 19.36426
762.5250, 37.54120
763.0071, 45.45270
763.4893, 26.58783
763.9714, 3.483215
764.4535, 1.367188
764.9356, 4.197815
765.4177, 4.773193
765.8998, 5.9326001E-02
766.3820, 0.8782350
766.8641, 13.69354
767.3462, 28.40607
767.8283, 23.99359
768.3104, 0.3692630
768.7925, 10.11298
769.2747, 2.042053
769.7568, 8.608398
770.2389, 17.08783
770.7210, 24.46613
771.2031, 34.23730
771.6852, 46.81891
772.1674, 48.71783
772.6495, 24.30707
773.1316, 8.688477
773.6137, 20.24603
774.0958, 37.15875
774.5779, 38.78467
775.0601, 28.00769
775.5422, 21.31244
776.0243, 27.31750
776.5064, 34.68738
776.9885, 31.92371
777.4706, 23.65668
777.9528, 16.56287
778.4349, 11.90430
778.9170, 12.46484
779.3991, 19.82361
779.8812, 28.08502
780.3633, 27.44873
780.8455, 18.13037
781.3276, 11.71259
781.8097, 8.204773
782.2918, 8.148743
782.7739, 13.85498
783.2560, 20.05688
783.7382, 20.34564
784.2203, 14.84039
784.7024, 11.54828
785.1845, 10.25946
785.6666, 11.25940
786.1487, 17.83429
786.6309, 23.20386
787.1130, 20.48273
787.5951, 12.82764
788.0772, 9.395386
788.5593, 14.41711
789.0414, 17.90479
789.5236, 7.193542
790.0057, 5.485291
790.4878, 2.017761
790.9699, 13.67596
791.4520, 28.87012
791.9341, 38.55896
792.4163, 40.32336
792.8984, 28.38452
793.3805, 7.428772
793.8626, 0.9918210
794.3447, 10.52417
794.8268, 13.91003
795.3090, 3.955200
795.7911, 6.639343
796.2732, 7.502991
796.7553, 3.2960000E-03
797.2374, 9.464600
797.7195, 26.23340
798.2017, 35.81836
798.6838, 35.50531
799.1659, 31.20715
799.6480, 21.50378
800.1301, 11.29364
800.6122, 8.414856
801.0944, 14.44995
801.5765, 20.21722
802.0586, 20.23480
802.5407, 19.87329
803.0228, 25.16156
803.5049, 31.76642
803.9871, 32.29718
804.4692, 26.03839
804.9513, 17.79144
805.4334, 10.53674
805.9155, 3.770508
806.3976, 6.208740
806.8798, 17.32507
807.3619, 17.43262
807.8440, 5.224365
808.3261, 2.492798
808.8082, 4.786926
809.2903, 17.62427
809.7725, 17.21600
810.2546, 0.8460690
810.7367, 7.406616
811.2188, 2.814575
811.7009, 1.1536000E-02
812.1830, 6.849609
812.6652, 14.44806
813.1473, 11.64679
813.6294, 1.9226000E-02
814.1115, 6.513306
814.5936, 6.088806
815.0757, 1.418213
815.5579, 13.66144
816.0400, 26.79822
816.5221, 26.85260
817.0042, 17.66394
817.4863, 8.541687
817.9684, 2.277710
818.4506, 0.9535520
818.9327, 0.8305050
819.4148, 4.347290
819.8969, 5.872314
820.3790, 5.560669
820.8611, 3.229736
821.3433, 0.6676640
821.8254, 2.155212
822.3075, 3.294800
822.7896, 12.77954
823.2717, 16.26166
823.7538, 13.60101
824.2360, 10.45349
824.7181, 7.607544
825.2002, 5.439636
825.6823, 4.064453
826.1644, 3.811646
826.6465, 6.277527
827.1287, 14.88647
827.6108, 18.02106
828.0929, 9.520203
828.5750, 3.744934
829.0571, 6.965698
829.5392, 13.57129
830.0214, 19.96600
830.5035, 25.60602
830.9856, 26.91785
831.4677, 15.12811
831.9498, 9.684448
832.4319, 24.78900
832.9141, 41.88348
833.3962, 42.73785
833.8783, 32.99487
834.3604, 29.05658
834.8425, 36.81451
835.3246, 47.43304
835.8068, 56.61139
836.2889, 62.61133
836.7710, 58.78790
837.2531, 50.21606
837.7352, 53.56427
838.2173, 71.52588
838.6995, 86.66357
839.1816, 82.86444
839.6637, 68.56165
840.1458, 64.75452
840.6279, 71.04169
841.1100, 76.58466
841.5922, 79.34021
842.0743, 89.01050
842.5564, 113.5846
843.0385, 142.6176
843.5206, 156.8716
844.0027, 154.3093
844.4849, 150.7056
844.9670, 142.6353
845.4491, 139.8618
845.9312, 149.0672
846.4133, 160.8084
846.8954, 166.1630
847.3776, 166.7351
847.8597, 169.6206
848.3418, 179.6199
848.8239, 186.7581
849.3060, 186.4877
849.7881, 185.0049
850.2703, 184.5745
850.7524, 186.2725
851.2345, 192.8915
851.7166, 204.6808
852.1987, 213.2211
852.6808, 208.5311
853.1630, 203.4684
853.6451, 214.4630
854.1272, 230.1759
854.6093, 229.4979
855.0914, 212.2477
855.5735, 196.2056
856.0557, 191.9445
856.5378, 192.6680
857.0199, 188.7800
857.5020, 181.9516
857.9841, 178.7692
858.4662, 178.9737
858.9484, 175.2162
859.4305, 164.4983
859.9126, 154.2010
860.3947, 153.1912
860.8768, 159.7812
861.3589, 163.9586
861.8411, 165.8477
862.3232, 163.9668
862.8053, 156.0696
863.2874, 149.6748
863.7695, 150.8429
864.2516, 155.2241
864.7338, 153.0638
865.2159, 142.1484
865.6980, 136.0559
866.1801, 136.5615
866.6622, 138.0925
867.1443, 138.2352
867.6265, 139.7696
868.1086, 147.1829
868.5907, 158.0995
869.0728, 164.6349
869.5549, 160.6527
870.0370, 160.2868
870.5192, 169.6915
871.0013, 182.4951
871.4834, 197.5527
871.9655, 210.9887
872.4476, 214.9523
872.9297, 208.6736
873.4119, 207.3543
873.8940, 226.1733
874.3761, 248.9345
874.8582, 262.4872
875.3403, 268.2618
875.8224, 263.5074
876.3046, 252.5634
876.7867, 252.7784
877.2688, 274.1893
877.7509, 302.8731
878.2330, 322.6426
878.7151, 334.6025
879.1973, 339.0377
879.6794, 337.5641
880.1615, 341.6986
880.6436, 354.8583
881.1257, 372.8263
881.6078, 393.2815
882.0900, 413.0084
882.5721, 418.4661
883.0542, 407.5630
883.5363, 406.2087
884.0184, 418.0337
884.5005, 435.5621
884.9827, 457.5150
885.4648, 478.6798
885.9469, 490.2164
886.4290, 491.4629
886.9111, 493.2972
887.3932, 496.6893
887.8754, 498.8070
888.3575, 498.1582
888.8396, 497.1177
889.3217, 499.0122
889.8038, 501.7625
890.2859, 499.7216
890.7681, 490.9407
891.2502, 482.5885
891.7323, 472.1581
892.2144, 466.1525
892.6965, 472.1467
893.1786, 480.3917
893.6608, 480.5525
894.1429, 472.6119
894.6250, 462.8032
895.1071, 452.8152
895.5892, 441.8882
896.0714, 427.1856
896.5535, 413.6070
897.0356, 408.2561
897.5177, 406.3209
897.9998, 396.5724
898.4819, 376.9278
898.9641, 359.9308
899.4462, 359.6326
899.9283, 360.9203
900.4104, 341.0605
900.8925, 314.0542
901.3746, 307.9061
901.8568, 320.1735
902.3389, 325.9025
902.8210, 313.1023
903.3031, 293.3207
903.7852, 278.1651
904.2673, 266.5472
904.7495, 255.7174
905.2316, 245.5685
905.7137, 236.0876
906.1958, 227.2337
906.6779, 218.9016
907.1600, 210.9799
907.6422, 203.4192
908.1243, 195.0900
908.6064, 186.1609
909.0885, 185.3506
909.5706, 194.5084
910.0527, 191.7828
910.5349, 166.3403
911.0170, 139.1133
911.4991, 133.4613
911.9812, 144.8113
912.4633, 141.3649
912.9454, 116.3279
913.4276, 103.6942
913.9097, 112.4647
914.3918, 120.9673
914.8739, 117.4998
915.3560, 107.3338
915.8381, 97.93188
916.3203, 89.23706
916.8024, 82.09247
917.2845, 75.05328
917.7666, 71.85571
918.2487, 74.68127
918.7308, 79.93976
919.2130, 91.18481
919.6951, 102.4039
920.1772, 96.43524
920.6593, 64.50806
921.1414, 45.85040
921.6235, 56.67090
922.1057, 66.19714
922.5878, 61.38312
923.0699, 53.24768
923.5520, 54.46497
924.0341, 61.83179
924.5162, 60.59314
924.9984, 43.00677
925.4805, 31.80975
925.9626, 43.34076
926.4447, 55.42395
926.9268, 52.90472
927.4089, 42.13953
927.8911, 30.28693
928.3732, 19.81110
928.8553, 14.30621
929.3374, 16.78088
929.8195, 21.91199
930.3016, 28.21259
930.7838, 33.58539
931.2659, 35.62500
931.7480, 34.93420
932.2301, 33.46997
932.7122, 31.98230
933.1943, 27.45551
933.6765, 15.82941
934.1586, 5.071045
934.6407, 6.738159
935.1228, 14.35217
935.6049, 15.63757
936.0870, 11.60687
936.5692, 11.32312
937.0513, 18.32990
937.5334, 27.01740
938.0155, 34.68683
938.4976, 37.95972
938.9797, 23.76147
939.4619, 6.4636000E-02
939.9440, 5.020630
940.4261, 10.14972
940.9082, 22.79431
941.3903, 20.33472
941.8724, 11.13617
942.3546, 5.156250
942.8367, 2.621521
943.3188, 7.137207
943.8009, 17.25677
944.2830, 18.86432
944.7651, 8.952881
945.2472, 1.086670
945.7293, 3.300354
946.2114, 0.6020510
946.6935, 1.863586
947.1757, 4.057129
947.6578, 3.781372
948.1399, 0.5943600
948.6220, 3.173523
949.1041, 15.02521
949.5862, 26.19897
950.0684, 27.98083
950.5505, 22.79388
951.0326, 17.34717
951.5147, 11.34650
951.9968, 7.105652
952.4789, 4.448608
952.9611, 5.280701
953.4432, 11.96130
953.9253, 17.49438
954.4074, 13.25360
954.8895, 2.295532
955.3716, 1.990723
955.8538, 18.26978
956.3359, 22.51495
956.8180, 5.709351
957.3001, 4.266235
957.7822, 8.413025
958.2643, 26.71326
958.7465, 30.07648
959.2286, 19.06494
959.7107, 8.368469
960.1928, 5.495728
960.6749, 11.01941
961.1570, 3.786438
961.6392, 6.462402
962.1213, 19.58972
962.6034, 29.69006
963.0855, 26.47571
963.5676, 9.413635
964.0497, 0.3438110
964.5319, 1.703125
965.0140, 3.696716
965.4961, 0.1748050
965.9782, 1.476379
966.4603, 23.14587
966.9424, 47.79132
967.4246, 44.75433
967.9067, 10.64758
968.3888, 9.507019
968.8709, 5.420593
969.3530, 0.3480220
969.8351, 8.333862
970.3173, 13.04059
970.7994, 7.980957
971.2815, 1.203003
971.7636, 4.276062
972.2457, 0.1427610
972.7278, 3.893066
973.2100, 3.462097
973.6921, 5.540161
974.1742, 14.91461
974.6563, 24.30298
975.1384, 31.09991
975.6205, 33.38507
976.1027, 26.06451
976.5848, 6.956909
977.0669, 7.667419
977.5490, 13.77191
978.0311, 15.78058
978.5132, 13.28186
978.9954, 8.933533
979.4775, 2.655396
979.9596, 3.562317
980.4417, 3.998535
980.9238, 5.218689
981.4059, 8.343384
981.8881, 3.665833
982.3702, 16.47040
982.8523, 28.38104
983.3344, 34.88904
983.8165, 27.82782
984.2986, 13.12763
984.7808, 4.693787
985.2629, 5.695984
985.7450, 11.15289
986.2271, 28.22797
986.7092, 38.43500
987.1913, 24.99365
987.6735, 6.991699
988.1556, 5.026001
988.6377, 13.97729
989.1198, 15.24390
989.6019, 2.617798
990.0840, 5.115051
990.5662, 3.680847
991.0483, 14.44061
991.5304, 20.12512
992.0125, 23.15741
992.4946, 25.78754
992.9767, 28.19269
993.4589, 29.71863
993.9410, 29.99609
994.4231, 30.88641
994.9052, 36.39954
995.3873, 38.99353
995.8694, 30.85449
996.3516, 20.20288
996.8337, 14.36597
997.3158, 13.90302
997.7979, 18.69232
998.2800, 30.25128
998.7621, 37.30939
999.2443, 31.85223
999.7264, 24.01465
1000.208, 16.82916
1000.691, 12.85309
1001.173, 16.62292
1001.655, 25.09778
1002.137, 29.18091
1002.619, 25.89124
1003.101, 21.82605
1003.583, 20.24506
1004.065, 18.47412
1004.548, 11.33984
1005.030, 5.824280
1005.512, 13.73651
1005.994, 28.96448
1006.476, 32.82892
1006.958, 18.84259
1007.440, 7.888550
1007.922, 12.30859
1008.404, 18.66168
1008.887, 19.14160
1009.369, 18.11462
1009.851, 21.75812
1010.333, 27.50342
1010.815, 27.14386
1011.297, 17.97900
1011.779, 11.03284
1012.261, 12.12140
1012.744, 15.10895
1013.226, 18.54596
1013.708, 20.88251
1014.190, 20.85602
1014.672, 18.55536
1015.154, 12.75323
1015.636, 3.122375
1016.118, 0.7208250
1016.600, 11.45953
1017.083, 21.94586
1017.565, 19.64789
1018.047, 14.71692
1018.529, 17.18597
1019.011, 24.40533
1019.493, 27.73584
1019.975, 24.96271
1020.457, 23.30762
1020.940, 28.77216
1021.422, 32.87115
1021.904, 29.82861
1022.386, 26.63684
1022.868, 30.60138
1023.350, 37.40430
1023.832, 39.06177
1024.314, 34.37146
1024.797, 27.51428
1025.279, 14.57867
1025.761, 6.578796
1026.243, 9.612610
1026.725, 15.35321
1027.207, 19.04132
1027.689, 20.61761
1028.171, 21.06128
1028.653, 20.44244
1029.135, 17.97363
1029.618, 9.294922
1030.100, 5.267395
1030.582, 10.95605
1031.064, 18.05609
1031.546, 23.21497
1032.028, 26.42072
1032.510, 28.09155
1032.992, 28.17584
1033.475, 25.75043
1033.957, 16.29309
1034.439, 11.22717
1034.921, 12.56531
1035.403, 16.23090
1035.885, 27.05658
1036.367, 35.28400
1036.849, 24.03674
1037.332, 2.016846
1037.814, 9.811279
1038.296, 18.80322
1038.778, 31.57611
1039.260, 15.39227
1039.742, 3.160583
1040.224, 7.820618
1040.706, 16.56445
1041.188, 16.55237
1041.671, 10.83521
1042.153, 12.66522
1042.635, 28.08875
1043.117, 33.36047
1043.599, 22.61169
1044.081, 12.99176
1044.563, 8.941833
1045.045, 7.465149
1045.527, 6.666321
1046.010, 6.322144
1046.492, 5.339905
1046.974, 2.678284
1047.456, 6.362244
1047.938, 19.21967
1048.420, 28.51874
1048.902, 29.04144
1049.384, 30.28943
1049.866, 40.00848
1050.349, 52.20905
1050.831, 54.69794
1051.313, 47.36432
1051.795, 34.44714
1052.277, 13.31201
1052.759, 5.803467
1053.241, 18.09399
1053.723, 28.38721
1054.206, 24.57965
1054.688, 15.52124
1055.170, 13.48981
1055.652, 17.24384
1056.134, 20.94519
1056.616, 24.55347
1057.098, 19.49725
1057.580, 4.626465
1058.063, 1.182434
1058.545, 10.38342
1059.027, 24.94025
1059.509, 26.19702
1059.991, 20.07050
1060.473, 22.95239
1060.955, 32.41254
1061.437, 35.74518
1061.919, 32.47284
1062.401, 25.10187
1062.884, 14.89618
1063.366, 7.600342
1063.848, 7.668213
1064.330, 12.89661
1064.812, 23.64600
1065.294, 35.20764
1065.776, 33.54370
1066.258, 22.72571
1066.741, 16.47571
1067.223, 17.37207
1067.705, 21.99707
1068.187, 29.05176
1068.669, 32.73322
1069.151, 22.37201
1069.633, 8.619629
1070.115, 6.859192
1070.598, 11.84473
1071.080, 13.60223
1071.562, 12.11090
1072.044, 13.12030
1072.526, 18.86206
1073.008, 23.74329
1073.490, 22.75116
1073.972, 19.94617
1074.454, 18.92871
1074.937, 18.43427
1075.419, 17.14880
1075.901, 14.59875
1076.383, 6.876526
1076.865, 5.611694
1077.347, 9.444275
1077.829, 8.261536
1078.311, 24.52222
1078.793, 28.21967
1079.276, 28.51282
1079.758, 32.01538
1080.240, 35.71393
1080.722, 34.24371
1081.204, 28.23120
1081.686, 23.84521
1082.168, 21.65881
1082.650, 22.28015
1083.133, 30.89813
1083.615, 35.75037
1084.097, 29.43481
1084.579, 20.40277
1085.061, 14.22101
1085.543, 11.55896
1086.025, 14.74133
1086.507, 25.80383
1086.990, 33.75543
1087.472, 38.29767
1087.954, 40.14191
1088.436, 38.70569
1088.918, 36.14093
1089.400, 33.64703
1089.882, 30.84247
1090.364, 26.86487
1090.846, 21.84906
1091.328, 18.09406
1091.811, 15.13654
1092.293, 17.83813
1092.775, 28.75940
1093.257, 31.42615
1093.739, 17.87146
1094.221, 0.8664550
1094.703, 7.443542
1095.185, 7.598816
1095.668, 3.847595
1096.150, 25.37726
1096.632, 28.42084
1097.114, 14.37500
1097.596, 10.64606
1098.078, 23.28052
1098.560, 33.41791
1099.042, 28.10443
1099.525, 19.54053
1100.007, 28.56525
1100.489, 44.31604
1100.971, 41.11200
1101.453, 27.15668
1101.935, 24.43164
1102.417, 32.61987
1102.899, 37.30859
1103.381, 34.32983
1103.864, 28.63995
1104.346, 23.14581
1104.828, 21.01514
1105.310, 30.53741
1105.792, 39.69379
1106.274, 34.57941
1106.756, 20.92755
1107.238, 7.344421
1107.720, 2.755005
1108.203, 0.8480830
1108.685, 25.24988
1109.167, 42.34912
1109.649, 26.82513
1110.131, 10.87817
1110.613, 15.44904
1111.095, 26.17963
1111.577, 26.26825
1112.060, 19.28052
1112.542, 19.76776
1113.024, 31.89294
1113.506, 39.80780
1113.988, 42.92853
1114.470, 40.89673
1114.952, 30.45972
1115.434, 18.83459
1115.917, 5.872192
1116.399, 1.257751
1116.881, 10.20477
1117.363, 37.64313
1117.845, 47.70508
1118.327, 35.73474
1118.809, 30.64081
1119.291, 35.86475
1119.773, 37.82343
1120.255, 30.77887
1120.738, 27.12122
1121.220, 39.14032
1121.702, 55.82251
1122.184, 49.85870
1122.666, 26.48810
1123.148, 17.23987
1123.630, 20.70758
1124.112, 27.27991
1124.595, 34.46075
1125.077, 37.68176
1125.559, 34.75909
1126.041, 28.97644
1126.523, 20.64240
1127.005, 15.03705
1127.487, 24.71033
1127.969, 38.81683
1128.452, 40.22577
1128.934, 31.36151
1129.416, 17.32227
1129.898, 2.150574
1130.380, 0.2215580
1130.862, 26.19135
1131.344, 44.20551
1131.826, 19.79791
1132.308, 2.555176
1132.791, 16.70801
1133.273, 44.65173
1133.755, 40.88507
1134.237, 16.18927
1134.719, 8.284729
1135.201, 25.72931
1135.683, 38.14630
1136.165, 38.74762
1136.647, 37.51263
1137.130, 36.01294
1137.612, 32.34631
1138.094, 21.29547
1138.576, 13.18701
1139.058, 23.09253
1139.540, 46.15833
1140.022, 56.19379
1140.504, 51.52869
1140.987, 42.51953
1141.469, 27.86584
1141.951, 23.53943
1142.433, 34.70691
1142.915, 43.81244
1143.397, 38.69244
1143.879, 27.93329
1144.361, 23.60077
1144.844, 24.69379
1145.326, 30.80780
1145.808, 39.13922
1146.290, 38.77588
1146.772, 31.30493
1147.254, 29.46832
1147.736, 36.03754
1148.218, 39.28143
1148.700, 29.49554
1149.182, 18.64032
1149.665, 17.98010
1150.147, 21.36798
1150.629, 23.76868
1151.111, 25.37506
1151.593, 27.54114
1152.075, 29.55499
1152.557, 28.39404
1153.039, 23.44531
1153.522, 20.21802
1154.004, 20.13940
1154.486, 20.63647
1154.968, 20.80511
1155.450, 21.60571
1155.932, 25.72931
1156.414, 29.11401
1156.896, 26.07141
1157.379, 17.85437
1157.861, 11.66559
1158.343, 6.136719
1158.825, 10.66022
1159.307, 30.66486
1159.789, 31.81720
1160.271, 1.633972
1160.753, 21.27081
1161.235, 11.10260
1161.718, 10.06982
1162.200, 7.103760
1162.682, 9.336975
1163.164, 1.002563
1163.646, 23.69763
1164.128, 35.67957
1164.610, 34.22302
1165.092, 27.84113
1165.574, 19.75879
1166.057, 13.56018
1166.539, 10.96063
1167.021, 12.36035
1167.503, 21.41089
1167.985, 31.39331
1168.467, 36.67358
1168.949, 39.04950
1169.431, 41.25195
1169.914, 42.67163
1170.396, 39.85809
1170.878, 32.05396
1171.360, 29.17877
1171.842, 42.94885
1172.324, 47.31140
1172.806, 28.02118
1173.288, 13.62488
1173.771, 16.81079
1174.253, 26.21387
1174.735, 34.60175
1175.217, 39.77478
1175.699, 34.42383
1176.181, 17.48523
1176.663, 14.63269
1177.145, 27.16473
1177.627, 30.03613
1178.109, 19.38049
1178.592, 13.96216
1179.074, 22.02527
1179.556, 28.71399
1180.038, 18.21771
1180.520, 1.879761
1181.002, 1.156921
1181.484, 3.417664
1181.966, 6.055420
1182.449, 7.465088
1182.931, 10.25256
1183.413, 14.68250
1183.895, 20.65076
1184.377, 28.31213
1184.859, 32.50690
1185.341, 28.21912
1185.823, 23.10895
1186.306, 17.22491
1186.788, 15.36407
1187.270, 27.39282
1187.752, 40.40234
1188.234, 33.87164
1188.716, 13.20929
1189.198, 10.01385
1189.680, 31.78851
1190.162, 36.77155
1190.645, 16.82770
1191.127, 11.33716
1191.609, 31.08215
1192.091, 47.04803
1192.573, 43.45667
1193.055, 37.07495
1193.537, 49.54559
1194.019, 68.92188
1194.501, 60.56030
1194.984, 35.71991
1195.466, 30.21863
1195.948, 39.64740
1196.430, 45.59570
1196.912, 44.90808
1197.394, 42.45068
1197.876, 40.25873
1198.358, 38.22546
1198.841, 33.75470
1199.323, 32.74011
1199.805, 46.38141
1200.287, 56.97565
1200.769, 46.31128
1201.251, 26.85730
1201.733, 14.00531
1202.215, 8.924255
1202.698, 11.97430
1203.180, 25.70599
1203.662, 28.40131
1204.144, 7.988159
1204.626, 4.529968
1205.108, 4.590149
1205.590, 1.898193
1206.072, 1.162598
1206.554, 5.5358998E-02
1207.036, 4.412537
1207.519, 11.37378
1208.001, 21.80518
1208.483, 33.24353
1208.965, 36.35089
1209.447, 32.59369
1209.929, 25.20062
1210.411, 16.85168
1210.893, 14.78180
1211.376, 21.63220
1211.858, 30.32495
1212.340, 39.27319
1212.822, 44.06250
1213.304, 37.92639
1213.786, 31.61920
1214.268, 32.79572
1214.750, 36.76312
1215.233, 38.74158
1215.715, 38.29901
1216.197, 35.35590
1216.679, 29.84247
1217.161, 21.49121
1217.643, 5.798889
1218.125, 3.421875
1218.607, 19.45453
1219.089, 35.96545
1219.572, 46.27094
1220.054, 51.96558
1220.536, 54.57050
1221.018, 52.93762
1221.500, 43.10254
1221.982, 28.38861
1222.464, 13.62994
1222.946, 2.245972
1223.428, 3.584045
1223.911, 14.93494
1224.393, 28.34656
1224.875, 39.40662
1225.357, 41.15527
1225.839, 26.78906
1226.321, 15.11646
1226.803, 16.40930
1227.285, 18.56036
1227.768, 17.39478
1228.250, 13.09424
1228.732, 0.5198360
1229.214, 10.73083
1229.696, 2.292542
1230.178, 22.72089
1230.660, 29.57001
1231.142, 15.68799
1231.625, 7.379517
1232.107, 5.925232
1232.589, 10.44525
1233.071, 20.25647
1233.553, 25.33820
1234.035, 19.89331
1234.517, 12.86816
1234.999, 13.27386
1235.481, 18.28223
1235.964, 26.24701
1236.446, 34.64996
1236.928, 43.46796
1237.410, 42.92126
1237.892, 33.18713
1238.374, 13.63574
1238.856, 5.706970
1239.338, 15.92395
1239.820, 24.90070
1240.303, 33.46552
1240.785, 33.89191
1241.267, 20.20526
1241.749, 10.57684
1242.231, 13.40259
1242.713, 18.42828
1243.195, 16.67432
1243.677, 10.49158
1244.159, 4.511108
1244.642, 0.0000000E+00
##END=



