##NAMES=Boulangerite
##RRUFFID=R050436
##IDEAL CHEMISTRY=Pb_5_Sb_4_S_11_
##LOCALITY=Noche Buena mine, Noche Buena, Municipio de Mazapil, Zacatecas, Mexico
##OWNER=RRUFF
##SOURCE=University of Arizona Mineral Museum
##DESCRIPTION=Mass of lead-gray acicular crystals
##STATUS=The identification of this mineral is confirmed by single-crystal X-ray diffraction and chemical analysis.
##URL=rruff.info/R050436
##MEASURED CHEMISTRY=Pb_5.00_Sb_4.00_S_11.00_
218.427, 0.000
218.909, 4.350
219.391, 10.214
219.874, 19.783
220.356, 21.890
220.838, 11.915
221.320, 1.812
221.802, 3.972
222.284, 15.833
222.766, 20.833
223.248, 27.387
223.731, 37.324
224.213, 35.770
224.695, 14.295
225.177, 10.725
225.659, 16.152
226.141, 9.590
226.623, 33.313
227.105, 45.229
227.587, 43.369
228.070, 41.375
228.552, 41.222
229.034, 37.775
229.516, 35.195
229.998, 28.745
230.480, 14.985
230.962, 25.925
231.444, 31.150
231.926, 30.972
232.409, 8.551
232.891, 15.324
233.373, 10.670
233.855, 5.718
234.337, 17.106
234.819, 1.154
235.301, 10.282
235.783, 10.065
236.266, 7.250
236.748, 20.651
237.230, 20.806
237.712, 4.061
238.194, 23.339
238.676, 23.667
239.158, 4.695
239.640, 20.286
240.122, 15.400
240.605, 1.498
241.087, 0.723
241.569, 15.970
242.051, 40.216
242.533, 74.970
243.015, 131.814
243.497, 163.097
243.980, 153.416
244.462, 124.221
244.944, 124.016
245.426, 172.978
245.908, 218.947
246.390, 238.934
246.872, 217.433
247.354, 210.407
247.836, 221.417
248.318, 244.813
248.801, 268.465
249.283, 290.708
249.765, 315.618
250.247, 348.118
250.729, 400.289
251.211, 426.717
251.693, 418.127
252.176, 388.672
252.658, 369.299
253.140, 364.128
253.622, 362.946
254.104, 359.704
254.586, 347.244
255.068, 355.390
255.550, 394.051
256.032, 448.763
256.514, 485.552
256.997, 497.469
257.479, 504.380
257.961, 512.889
258.443, 519.804
258.925, 537.912
259.407, 569.870
259.889, 611.035
260.371, 653.938
260.854, 703.943
261.336, 744.126
261.818, 762.764
262.300, 747.719
262.782, 752.327
263.264, 781.130
263.746, 826.345
264.228, 872.253
264.711, 920.750
265.193, 965.883
265.675, 1006.297
266.157, 1042.598
266.639, 1069.426
267.121, 1083.537
267.603, 1090.743
268.085, 1101.527
268.567, 1115.089
269.050, 1134.956
269.532, 1166.165
270.014, 1212.938
270.496, 1247.140
270.978, 1265.582
271.460, 1274.867
271.942, 1287.470
272.424, 1304.830
272.906, 1320.776
273.389, 1332.359
273.871, 1339.092
274.353, 1345.803
274.835, 1352.062
275.317, 1358.977
275.799, 1366.307
276.281, 1370.012
276.763, 1383.455
277.246, 1419.081
277.728, 1478.359
278.210, 1510.978
278.692, 1509.221
279.174, 1493.477
279.656, 1497.256
280.138, 1522.445
280.620, 1549.657
281.103, 1570.827
281.585, 1586.115
282.067, 1601.955
282.549, 1618.235
283.031, 1634.718
283.513, 1650.678
283.995, 1666.728
284.477, 1686.677
284.959, 1716.612
285.441, 1753.971
285.924, 1779.286
286.406, 1791.798
286.888, 1795.556
287.370, 1790.719
287.852, 1778.306
288.334, 1772.959
288.816, 1778.713
289.298, 1755.273
289.781, 1824.655
290.263, 1871.548
290.745, 1897.161
291.227, 1837.658
291.709, 1888.138
292.191, 1894.585
292.673, 1899.243
293.155, 1965.285
293.638, 1918.312
294.120, 1983.436
294.602, 2003.849
295.084, 2013.920
295.566, 2033.313
296.048, 2059.889
296.530, 2082.743
297.012, 2102.992
297.494, 2124.437
297.977, 2147.384
298.459, 2161.957
298.941, 2136.662
299.423, 2095.561
299.905, 2101.722
300.387, 2056.947
300.869, 2144.036
301.351, 2199.139
301.833, 2223.974
302.316, 2127.837
302.798, 2185.827
303.280, 2184.840
303.762, 2175.888
304.244, 2139.766
304.726, 2099.846
305.208, 2086.642
305.690, 2095.137
306.173, 2097.783
306.655, 2074.685
307.137, 2035.009
307.619, 1991.306
308.101, 1946.569
308.583, 1898.327
309.065, 1846.633
309.547, 1790.721
310.030, 1729.204
310.512, 1654.277
310.994, 1576.653
311.476, 1508.101
311.958, 1450.729
312.440, 1402.316
312.922, 1366.608
313.404, 1339.082
313.886, 1307.781
314.369, 1264.213
314.851, 1216.861
315.333, 1172.083
315.815, 1132.555
316.297, 1092.469
316.779, 1050.718
317.261, 1006.933
317.743, 959.612
318.225, 896.913
318.708, 840.329
319.190, 799.129
319.672, 775.233
320.154, 766.310
320.636, 722.780
321.118, 760.674
321.600, 778.106
322.082, 776.148
322.565, 700.108
323.047, 722.199
323.529, 706.838
324.011, 689.670
324.493, 725.214
324.975, 661.439
325.457, 696.506
325.939, 693.065
326.422, 707.775
326.904, 683.429
327.386, 670.856
327.868, 696.874
328.350, 701.216
328.832, 672.210
329.314, 688.628
329.796, 626.241
330.278, 633.512
330.760, 672.943
331.243, 646.429
331.725, 661.330
332.207, 659.134
332.689, 586.195
333.171, 641.387
333.653, 640.740
334.135, 582.859
334.617, 631.738
335.100, 582.400
335.582, 583.286
336.064, 587.732
336.546, 597.900
337.028, 610.256
337.510, 626.510
337.992, 631.284
338.474, 622.062
338.957, 605.713
339.439, 594.335
339.921, 590.898
340.403, 592.007
340.885, 599.185
341.367, 615.158
341.849, 626.575
342.331, 632.547
342.813, 635.731
343.296, 641.359
343.778, 649.853
344.260, 654.664
344.742, 651.489
345.224, 641.926
345.706, 636.668
346.188, 637.048
346.670, 635.540
347.152, 618.319
347.635, 588.581
348.117, 568.556
348.599, 570.405
349.081, 583.834
349.563, 587.327
350.045, 580.916
350.527, 569.770
351.009, 554.479
351.491, 537.857
351.974, 528.184
352.456, 532.392
352.938, 537.846
353.420, 527.241
353.902, 502.995
354.384, 477.577
354.866, 457.971
355.349, 442.831
355.831, 430.958
356.313, 422.393
356.795, 416.521
357.277, 418.764
357.759, 424.229
358.241, 420.345
358.723, 392.891
359.205, 358.927
359.688, 330.835
360.170, 311.554
360.652, 294.656
361.134, 278.731
361.616, 263.015
362.098, 246.365
362.580, 222.778
363.062, 202.838
363.544, 194.159
364.027, 199.306
364.509, 197.246
364.991, 176.195
365.473, 148.350
365.955, 125.792
366.437, 106.108
366.919, 96.024
367.401, 103.657
367.884, 128.517
368.366, 140.367
368.848, 130.530
369.330, 112.910
369.812, 94.743
370.294, 67.542
370.776, 52.933
371.258, 60.107
371.741, 81.292
372.223, 86.941
372.705, 67.628
373.187, 46.520
373.669, 34.683
374.151, 36.663
374.633, 33.131
375.115, 21.310
375.597, 5.935
376.079, 3.057
376.562, 4.337
377.044, 5.765
377.526, 11.720
378.008, 22.105
378.490, 22.918
378.972, 10.864
379.454, 1.029
379.936, 7.249
380.419, 34.598
380.901, 52.704
381.383, 48.592
381.865, 31.182
382.347, 27.011
382.829, 36.223
383.311, 47.054
383.793, 49.810
384.276, 46.354
384.758, 42.283
385.240, 37.394
385.722, 34.701
386.204, 42.050
386.686, 56.826
387.168, 67.104
387.650, 65.722
388.132, 98.554
388.615, 49.549
389.097, 20.496
389.579, 10.310
390.061, 75.353
390.543, 43.391
391.025, 50.396
391.507, 59.065
391.989, 13.638
392.471, 68.069
392.954, 23.625
393.436, 18.729
393.918, 4.191
394.400, 12.074
394.882, 16.292
395.364, 18.599
395.846, 31.774
396.328, 10.845
396.810, 34.682
397.293, 21.559
397.775, 7.609
398.257, 36.604
398.739, 3.988
399.221, 13.958
399.703, 29.947
400.185, 58.682
400.668, 92.054
401.150, 112.031
401.632, 108.110
402.114, 105.359
402.596, 113.767
403.078, 137.402
403.560, 148.557
404.042, 138.284
404.524, 126.498
405.007, 132.328
405.489, 105.645
405.971, 166.940
406.453, 206.848
406.935, 226.519
407.417, 165.405
407.899, 208.551
408.381, 209.880
408.863, 209.471
409.346, 267.221
409.828, 256.519
410.310, 286.777
410.792, 331.244
411.274, 370.492
411.756, 403.517
412.238, 423.797
412.720, 411.096
413.203, 387.050
413.685, 394.932
414.167, 440.373
414.649, 497.640
415.131, 548.234
415.613, 593.713
416.095, 635.786
416.577, 671.102
417.060, 707.018
417.542, 750.724
418.024, 801.234
418.506, 852.419
418.988, 905.378
419.470, 954.994
419.952, 994.624
420.434, 1012.455
420.916, 1036.306
421.398, 1077.497
421.881, 1131.565
422.363, 1188.079
422.845, 1246.217
423.327, 1304.914
423.809, 1364.288
424.291, 1425.408
424.773, 1482.430
425.255, 1533.611
425.738, 1581.192
426.220, 1627.614
426.702, 1666.977
427.184, 1713.860
427.666, 1773.836
428.148, 1845.316
428.630, 1914.177
429.112, 1980.739
429.595, 2044.000
430.077, 2101.473
430.559, 2151.892
431.041, 2202.711
431.523, 2255.613
432.005, 2308.811
432.487, 2363.182
432.969, 2419.273
433.451, 2464.152
433.934, 2487.978
434.416, 2494.521
434.898, 2498.188
435.380, 2498.883
435.862, 2496.973
436.344, 2489.128
436.826, 2480.212
437.308, 2483.013
437.790, 2514.459
438.273, 2545.119
438.755, 2533.380
439.237, 2486.976
439.719, 2446.954
440.201, 2453.920
440.683, 2469.891
441.165, 2452.255
441.647, 2375.811
442.129, 2310.330
442.612, 2306.684
443.094, 2337.254
443.576, 2353.627
444.058, 2332.475
444.540, 2298.800
445.022, 2260.128
445.504, 2216.923
445.987, 2173.998
446.469, 2134.702
446.951, 2101.371
447.433, 2076.393
447.915, 2077.550
448.397, 2057.048
448.879, 1995.141
449.361, 1904.648
449.843, 1843.616
450.326, 1817.441
450.808, 1799.074
451.290, 1769.345
451.772, 1725.076
452.254, 1693.306
452.736, 1680.205
453.218, 1672.213
453.700, 1642.484
454.182, 1589.710
454.665, 1542.461
455.147, 1506.996
455.629, 1483.641
456.111, 1471.121
456.593, 1467.075
457.075, 1455.274
457.557, 1411.871
458.039, 1351.185
458.522, 1303.157
459.004, 1268.032
459.486, 1258.691
459.968, 1324.022
460.450, 1427.102
460.932, 1478.790
461.414, 1392.087
461.896, 1269.450
462.379, 1186.710
462.861, 1148.178
463.343, 1112.927
463.825, 1053.562
464.307, 993.735
464.789, 954.450
465.271, 957.114
465.753, 961.393
466.235, 960.415
466.717, 955.070
467.200, 948.316
467.682, 939.384
468.164, 930.103
468.646, 920.450
469.128, 908.947
469.610, 902.501
470.092, 904.010
470.574, 907.500
471.057, 906.223
471.539, 899.669
472.021, 889.301
472.503, 873.436
472.985, 854.274
473.467, 841.716
473.949, 836.596
474.431, 830.663
474.914, 816.471
475.396, 796.480
475.878, 781.692
476.360, 773.519
476.842, 769.793
477.324, 769.905
477.806, 772.996
478.288, 776.460
478.770, 784.527
479.253, 789.610
479.735, 778.002
480.217, 752.334
480.699, 734.718
481.181, 743.244
481.663, 763.529
482.145, 778.088
482.627, 759.081
483.109, 737.737
483.592, 796.430
484.074, 832.295
484.556, 847.926
485.038, 791.462
485.520, 831.922
486.002, 832.896
486.484, 852.530
486.966, 861.225
487.448, 882.731
487.931, 910.289
488.413, 926.116
488.895, 934.225
489.377, 930.845
489.859, 910.261
490.341, 886.004
490.823, 889.301
491.306, 923.101
491.788, 946.997
492.270, 940.708
492.752, 913.397
493.234, 901.450
493.716, 904.646
494.198, 914.977
494.680, 934.175
495.162, 956.715
495.645, 965.760
496.127, 949.845
496.609, 931.573
497.091, 921.817
497.573, 922.215
498.055, 930.122
498.537, 952.072
499.019, 974.016
499.501, 991.429
499.984, 1003.780
500.466, 1011.575
500.948, 1009.437
501.430, 1005.700
501.912, 1007.511
502.394, 1022.804
502.876, 1035.527
503.358, 1013.158
503.841, 985.667
504.323, 959.644
504.805, 998.401
505.287, 1021.407
505.769, 1029.529
506.251, 978.175
506.733, 1003.596
507.215, 998.239
507.698, 991.600
508.180, 1027.800
508.662, 985.039
509.144, 1016.324
509.626, 1045.214
510.108, 1088.872
510.590, 1098.736
511.072, 1077.946
511.554, 1050.359
512.036, 1024.255
512.519, 1001.874
513.001, 990.266
513.483, 990.411
513.965, 985.563
514.447, 953.637
514.929, 913.797
515.411, 888.813
515.893, 907.480
516.375, 914.663
516.858, 880.157
517.340, 816.828
517.822, 760.738
518.304, 718.135
518.786, 685.239
519.268, 664.436
519.750, 658.931
520.232, 645.143
520.715, 618.304
521.197, 587.858
521.679, 562.602
522.161, 545.261
522.643, 523.522
523.125, 494.643
523.607, 461.932
524.089, 435.621
524.571, 416.635
525.054, 391.772
525.536, 344.955
526.018, 286.662
526.500, 259.320
526.982, 263.690
527.464, 270.925
527.946, 248.804
528.429, 213.966
528.911, 195.400
529.393, 205.840
529.875, 222.650
530.357, 239.484
530.839, 250.023
531.321, 241.189
531.803, 193.142
532.286, 137.969
532.768, 85.941
533.250, 36.998
533.732, 1.250
534.214, 12.749
534.696, 18.371
535.178, 23.455
535.660, 27.102
536.142, 31.842
536.625, 38.496
537.107, 45.581
537.589, 49.839
538.071, 50.004
538.553, 52.983
539.035, 62.340
539.517, 75.992
539.999, 91.783
540.481, 110.671
540.964, 151.810
541.446, 89.689
541.928, 52.760
542.410, 39.652
542.892, 121.488
543.374, 80.918
543.856, 89.531
544.338, 100.248
544.820, 42.702
545.303, 111.180
545.785, 54.879
546.267, 57.624
546.749, 40.339
547.231, 29.986
547.713, 50.323
548.195, 66.521
548.677, 57.569
549.159, 6.973
549.642, 18.042
550.124, 3.081
550.606, 24.729
551.088, 37.820
551.570, 29.919
552.052, 28.652
552.534, 41.863
553.016, 61.204
553.499, 63.980
553.981, 99.331
554.463, 26.718
554.945, 19.640
555.427, 41.173
555.909, 36.451
556.391, 13.913
556.873, 12.958
557.356, 9.889
557.838, 78.229
558.320, 14.950
558.802, 82.135
559.284, 97.226
559.766, 136.143
560.248, 123.430
560.730, 126.648
561.213, 181.501
561.695, 207.746
562.177, 189.052
562.659, 229.426
563.141, 164.240
563.623, 191.667
564.105, 259.056
564.587, 242.914
565.069, 284.194
565.552, 303.595
566.034, 223.597
566.516, 274.917
566.998, 289.903
567.480, 289.024
567.962, 297.629
568.444, 326.174
568.926, 362.544
569.408, 383.128
569.891, 390.453
570.373, 397.066
570.855, 410.562
571.337, 426.894
571.819, 439.836
572.301, 448.789
572.783, 465.574
573.265, 490.686
573.747, 477.513
574.230, 550.509
574.712, 602.585
575.194, 634.874
575.676, 588.098
576.158, 643.418
576.640, 657.827
577.122, 670.560
577.604, 740.261
578.086, 704.992
578.569, 768.222
579.051, 793.957
579.533, 838.566
580.015, 882.632
580.497, 911.403
580.979, 928.000
581.461, 939.960
581.943, 942.862
582.426, 975.194
582.908, 889.780
583.390, 1100.028
583.872, 1238.524
584.354, 1309.129
584.836, 1108.412
585.318, 1258.059
585.800, 1267.313
586.282, 1270.818
586.765, 1469.810
587.247, 1438.942
587.729, 1466.699
588.211, 1535.423
588.693, 1599.493
589.175, 1651.011
589.657, 1703.192
590.140, 1761.611
590.622, 1823.921
591.104, 1903.535
591.586, 2012.590
592.068, 2118.680
592.550, 2163.045
593.032, 2147.245
593.514, 2156.006
593.996, 2218.223
594.479, 2307.863
594.961, 2387.290
595.443, 2456.251
595.925, 2512.920
596.407, 2536.437
596.889, 2559.081
597.371, 2605.603
597.853, 2677.603
598.335, 2783.411
598.818, 2986.998
599.300, 3192.413
599.782, 3321.667
600.264, 3319.207
600.746, 3305.287
601.228, 3280.937
601.710, 3262.663
602.192, 3272.715
602.674, 3307.374
603.157, 3394.225
603.639, 3575.654
604.121, 3804.980
604.603, 3926.124
605.085, 3932.164
605.567, 3917.711
606.049, 3926.830
606.531, 3958.228
607.013, 4010.525
607.496, 4081.732
607.978, 4157.686
608.460, 4229.201
608.942, 4298.135
609.424, 4367.548
609.906, 4438.704
610.388, 4504.931
610.870, 4560.425
611.353, 4610.453
611.835, 4657.562
612.317, 4702.549
612.799, 4757.460
613.281, 4825.083
613.763, 4901.310
614.245, 4979.822
614.727, 5066.783
615.209, 5134.741
615.692, 5165.413
616.174, 5162.320
616.656, 5167.497
617.138, 5180.909
617.620, 5204.729
618.102, 5250.326
618.584, 5307.417
619.067, 5347.884
619.549, 5364.756
620.031, 5376.775
620.513, 5404.157
620.995, 5436.002
621.477, 5456.307
621.959, 5447.856
622.441, 5438.858
622.923, 5438.387
623.406, 5444.619
623.888, 5451.839
624.370, 5462.653
624.852, 5470.287
625.334, 5470.708
625.816, 5464.109
626.298, 5469.381
626.780, 5494.962
627.263, 5508.387
627.745, 5479.446
628.227, 5412.839
628.709, 5351.874
629.191, 5299.000
629.673, 5257.626
630.155, 5239.355
630.637, 5234.736
631.119, 5225.222
631.602, 5207.919
632.084, 5180.268
632.566, 5131.396
633.048, 5072.037
633.530, 5023.208
634.012, 5001.688
634.494, 4981.542
634.976, 4950.766
635.458, 4911.172
635.941, 4885.444
636.423, 4881.370
636.905, 4879.349
637.387, 4871.026
637.869, 4856.231
638.351, 4833.413
638.833, 4799.988
639.315, 4769.783
639.797, 4763.153
640.280, 4772.204
640.762, 4765.950
641.244, 4735.429
641.726, 4701.408
642.208, 4685.904
642.690, 4681.017
643.172, 4672.886
643.654, 4666.198
644.137, 4645.262
644.619, 4594.141
645.101, 4522.408
645.583, 4461.511
646.065, 4444.885
646.547, 4408.913
647.029, 4331.968
647.511, 4213.301
647.994, 4097.193
648.476, 3982.013
648.958, 3877.186
649.440, 3801.729
649.922, 3749.229
650.404, 3664.572
650.886, 3542.914
651.368, 3405.598
651.851, 3272.703
652.333, 3142.826
652.815, 3006.515
653.297, 2854.123
653.779, 2713.137
654.261, 2610.019
654.743, 2527.857
655.225, 2440.163
655.707, 2317.880
656.190, 2215.008
656.672, 2155.165
657.154, 2125.486
657.636, 2071.555
658.118, 1982.980
658.600, 1892.566
659.082, 1813.172
659.564, 1742.951
660.046, 1673.361
660.529, 1603.717
661.011, 1537.711
661.493, 1480.958
661.975, 1429.921
662.457, 1376.581
662.939, 1320.065
663.421, 1260.591
663.903, 1187.933
664.385, 1117.508
664.868, 1067.833
665.350, 1060.345
665.832, 1048.653
666.314, 1014.617
666.796, 971.585
667.278, 943.794
667.760, 947.266
668.242, 937.217
668.724, 900.339
669.207, 844.623
669.689, 795.272
670.171, 752.177
670.653, 719.762
671.135, 708.042
671.617, 705.858
672.099, 682.057
672.581, 638.539
673.064, 599.032
673.546, 585.957
674.028, 582.544
674.510, 573.238
674.992, 554.647
675.474, 537.459
675.956, 532.580
676.438, 525.915
676.920, 505.730
677.403, 463.395
677.885, 424.771
678.367, 391.937
678.849, 362.362
679.331, 328.417
679.813, 288.440
680.295, 265.641
680.778, 270.302
681.260, 287.042
681.742, 287.938
682.224, 278.228
682.706, 275.118
683.188, 299.995
683.670, 322.358
684.152, 315.578
684.634, 284.496
685.117, 254.394
685.599, 224.282
686.081, 204.190
686.563, 204.706
687.045, 228.765
687.527, 236.175
688.009, 222.609
688.491, 200.051
688.973, 171.965
689.456, 137.969
689.938, 120.566
690.420, 122.317
690.902, 132.430
691.384, 145.880
691.866, 158.012
692.348, 157.162
692.830, 136.736
693.312, 114.339
693.795, 104.034
694.277, 99.646
694.759, 93.260
695.241, 77.646
695.723, 64.722
696.205, 52.034
696.687, 43.095
697.169, 48.492
697.652, 74.494
698.134, 97.976
698.616, 115.894
699.098, 124.522
699.580, 99.259
700.062, 41.431
700.544, 6.859
701.026, 16.177
701.508, 1.145
701.991, 25.882
702.473, 62.456
702.955, 83.480
703.437, 58.179
703.919, 24.427
704.401, 8.306
704.883, 15.525
705.365, 29.562
705.847, 59.470
706.330, 86.579
706.812, 95.167
707.294, 80.562
707.776, 65.146
708.258, 50.031
708.740, 35.273
709.222, 17.442
709.705, 0.525
710.187, 3.910
710.669, 16.720
711.151, 41.536
711.633, 44.531
712.115, 33.016
712.597, 16.611
713.079, 12.399
713.561, 33.236
714.044, 28.895
714.526, 6.161
715.008, 4.849
715.490, 2.733
715.972, 2.624
716.454, 5.375
716.936, 5.745
717.418, 4.979
717.901, 3.122
718.383, 4.630
718.865, 21.287
719.347, 40.106
719.829, 29.272
720.311, 9.777
720.793, 39.329
721.275, 22.283
721.757, 5.319
722.240, 14.891
722.722, 2.876
723.204, 15.350
723.686, 18.783
724.168, 14.550
724.650, 0.061
725.132, 32.677
725.614, 42.846
726.096, 22.777
726.579, 3.360
727.061, 3.359
727.543, 17.018
728.025, 34.176
728.507, 44.168
728.989, 48.022
729.471, 37.880
729.953, 21.968
730.435, 13.609
730.918, 28.681
731.400, 40.608
731.882, 39.839
732.364, 30.336
732.846, 22.791
733.328, 16.230
733.810, 12.761
734.292, 12.692
734.775, 16.160
735.257, 30.432
735.739, 54.934
736.221, 68.633
736.703, 52.237
737.185, 22.872
737.667, 1.865
738.149, 10.031
738.631, 8.683
739.114, 30.086
739.596, 64.427
740.078, 62.671
740.560, 19.111
741.042, 5.760
741.524, 3.228
742.006, 16.197
742.489, 17.745
742.971, 6.754
743.453, 1.343
743.935, 6.460
744.417, 8.873
744.899, 5.743
745.381, 0.478
745.863, 2.361
746.345, 13.316
746.828, 23.458
747.310, 24.909
747.792, 22.176
748.274, 19.256
748.756, 14.315
749.238, 14.898
749.720, 27.290
750.202, 41.874
750.684, 50.431
751.167, 54.858
751.649, 42.778
752.131, 6.347
752.613, 33.562
753.095, 38.387
753.577, 17.356
754.059, 6.580
754.541, 25.154
755.023, 44.184
755.506, 33.441
755.988, 5.302
756.470, 16.161
756.952, 14.472
757.434, 15.480
757.916, 29.894
758.398, 51.025
758.880, 60.602
759.362, 54.635
759.845, 49.969
760.327, 53.543
760.809, 60.711
761.291, 53.785
761.773, 35.194
762.255, 24.054
762.737, 42.638
763.219, 65.688
763.702, 61.794
764.184, 36.542
764.666, 22.406
765.148, 38.438
765.630, 61.347
766.112, 85.324
766.594, 109.993
767.076, 118.731
767.558, 102.580
768.041, 90.281
768.523, 26.026
769.005, 115.225
769.487, 167.234
769.969, 183.812
770.451, 59.452
770.933, 116.857
771.416, 100.964
771.898, 82.114
772.380, 165.050
772.862, 60.950
773.344, 142.259
773.826, 149.484
774.308, 139.496
774.790, 132.657
775.272, 133.170
775.755, 144.072
776.237, 156.266
776.719, 160.820
777.201, 158.631
777.683, 157.984
778.165, 159.935
778.647, 162.832
779.129, 164.691
779.612, 167.527
780.094, 172.002
780.576, 178.717
781.058, 189.360
781.540, 214.154
782.022, 237.453
782.504, 243.363
782.986, 217.627
783.468, 210.750
783.951, 237.482
784.433, 265.412
784.915, 235.056
785.397, 160.832
785.879, 132.874
786.361, 184.948
786.843, 247.898
787.325, 254.915
787.807, 184.921
788.290, 276.573
788.772, 328.699
789.254, 343.516
789.736, 210.150
790.218, 268.214
790.700, 249.798
791.182, 228.375
791.664, 313.711
792.146, 202.448
792.629, 285.921
793.111, 290.755
793.593, 276.094
794.075, 288.625
794.557, 303.861
795.039, 315.569
795.521, 313.215
796.003, 302.283
796.485, 294.831
796.968, 296.067
797.450, 295.492
797.932, 293.139
798.414, 292.969
798.896, 295.699
799.378, 300.128
799.860, 300.792
800.343, 293.910
800.825, 287.049
801.307, 299.741
801.789, 326.368
802.271, 345.266
802.753, 337.286
803.235, 325.159
803.717, 327.367
804.199, 338.997
804.682, 342.728
805.164, 322.953
805.646, 308.065
806.128, 304.221
806.610, 310.018
807.092, 323.982
807.574, 347.961
808.056, 361.786
808.539, 353.383
809.021, 331.802
809.503, 303.956
809.985, 273.707
810.467, 258.941
810.949, 290.420
811.431, 325.761
811.913, 341.638
812.395, 336.900
812.878, 330.156
813.360, 325.307
813.842, 319.821
814.324, 308.606
814.806, 293.947
815.288, 291.963
815.770, 302.307
816.252, 314.346
816.734, 317.712
817.217, 316.963
817.699, 319.795
818.181, 324.348
818.663, 319.874
819.145, 294.963
819.627, 265.251
820.109, 232.026
820.591, 199.074
821.073, 187.005
821.556, 199.652
822.038, 217.586
822.520, 160.368
823.002, 232.053
823.484, 271.882
823.966, 282.566
824.448, 175.965
824.930, 221.572
825.413, 205.991
825.895, 188.314
826.377, 252.644
826.859, 162.859
827.341, 228.478
827.823, 232.204
828.305, 261.994
828.787, 232.058
829.269, 220.577
829.752, 269.841
830.234, 287.695
830.716, 252.995
831.198, 226.459
831.680, 228.018
832.162, 205.589
832.644, 184.943
833.127, 172.878
833.609, 167.746
834.091, 174.739
834.573, 193.889
835.055, 199.031
835.537, 186.246
836.019, 166.809
836.501, 140.037
836.983, 85.082
837.466, 150.313
837.948, 186.372
838.430, 194.921
838.912, 93.323
839.394, 134.118
839.876, 117.833
840.358, 99.177
840.840, 159.885
841.322, 74.086
841.805, 133.548
842.287, 135.034
842.769, 123.020
843.251, 126.792
843.733, 121.640
844.215, 118.803
844.697, 126.653
845.179, 135.309
845.661, 120.393
846.144, 89.062
846.626, 65.143
847.108, 66.059
847.590, 72.323
848.072, 76.641
848.554, 78.395
849.036, 77.119
849.518, 69.304
850.000, 66.412
850.483, 74.439
850.965, 88.583
851.447, 93.540
851.929, 90.772
852.411, 91.197
852.893, 105.879
853.375, 120.085
853.857, 122.722
854.340, 114.088
854.822, 94.667
855.304, 36.593
855.786, 2.841
856.268, 13.932
856.750, 53.563
857.232, 81.720
857.714, 98.498
858.196, 103.737
858.679, 92.121
859.161, 74.812
859.643, 72.942
860.125, 80.350
860.607, 83.242
861.089, 66.540
861.571, 54.626
862.054, 65.031
862.536, 84.305
863.018, 84.944
863.500, 57.755
863.982, 36.544
864.464, 26.033
864.946, 24.404
865.428, 32.009
865.910, 46.217
866.393, 57.173
866.875, 60.670
867.357, 62.850
867.839, 73.898
868.321, 84.472
868.803, 81.947
869.285, 26.252
869.767, 89.188
870.250, 123.328
870.732, 130.223
871.214, 28.252
871.696, 66.861
872.178, 49.122
872.660, 29.065
873.142, 87.436
873.624, 1.262
874.106, 58.361
874.589, 58.245
875.071, 84.297
875.553, 53.651
876.035, 40.503
876.517, 36.069
876.999, 51.071
877.481, 70.998
877.963, 73.006
878.445, 53.863
878.928, 28.098
879.410, 2.035
879.892, 18.212
880.374, 17.255
880.856, 9.082
881.338, 30.612
881.820, 30.542
882.302, 21.900
882.784, 10.530
883.267, 6.106
883.749, 1.443
884.231, 32.780
884.713, 62.944
885.195, 60.292
885.677, 36.127
886.159, 31.250
886.641, 43.925
887.123, 44.730
887.606, 8.827
888.088, 60.442
888.570, 65.031
889.052, 20.875
889.534, 3.841
890.016, 34.547
890.498, 54.337
890.981, 33.961
891.463, 14.351
891.945, 41.909
892.427, 50.550
892.909, 52.596
893.391, 52.975
893.873, 51.103
894.355, 46.345
894.837, 38.431
895.320, 28.825
895.802, 6.206
896.284, 2.775
896.766, 11.439
897.248, 39.542
897.730, 57.043
898.212, 64.053
898.694, 62.953
899.177, 49.275
899.659, 35.372
900.141, 35.788
900.623, 43.264
901.105, 45.602
901.587, 34.250
902.069, 23.627
902.551, 11.979
903.033, 4.918
903.516, 13.271
903.998, 38.017
904.480, 51.681
904.962, 48.998
905.444, 43.227
905.926, 53.948
906.408, 68.795
906.890, 67.633
907.372, 40.621
907.855, 18.052
908.337, 8.549
908.819, 7.970
909.301, 15.565
909.783, 34.144
910.265, 42.450
910.747, 39.535
911.229, 33.347
911.711, 26.489
912.194, 22.485
912.676, 30.616
913.158, 49.935
913.640, 62.464
914.122, 65.633
914.604, 58.226
915.086, 27.778
915.568, 21.917
916.050, 20.729
916.533, 40.242
917.015, 99.706
917.497, 131.927
917.979, 140.450
918.461, 118.903
918.943, 76.937
919.425, 48.622
919.907, 54.901
920.390, 73.277
920.872, 100.666
921.354, 132.427
921.836, 159.837
922.318, 184.418
922.800, 197.011
923.282, 191.613
923.765, 181.644
924.247, 191.262
924.729, 212.802
925.211, 228.150
925.693, 225.287
926.175, 227.822
926.657, 255.791
927.139, 288.751
927.621, 302.158
928.104, 282.911
928.586, 288.224
929.068, 325.797
929.550, 367.096
930.032, 373.437
930.514, 361.774
930.996, 373.667
931.478, 412.998
931.960, 451.463
932.443, 463.361
932.925, 474.603
933.407, 507.523
933.889, 564.503
934.371, 588.771
934.853, 570.650
935.335, 559.795
935.817, 591.326
936.299, 646.912
936.782, 684.400
937.264, 707.369
937.746, 735.306
938.228, 790.658
938.710, 844.380
939.192, 875.656
939.674, 893.212
940.156, 922.875
940.638, 966.938
941.121, 1014.594
941.603, 1065.968
942.085, 1118.474
942.567, 1159.450
943.049, 1196.591
943.531, 1246.909
944.013, 1324.860
944.495, 1401.056
944.978, 1461.613
945.460, 1514.324
945.942, 1564.725
946.424, 1613.363
946.906, 1679.868
947.388, 1765.775
947.870, 1854.510
948.352, 1928.633
948.834, 2001.229
949.317, 2096.578
949.799, 2215.592
950.281, 2327.728
950.763, 2415.668
951.245, 2497.746
951.727, 2581.638
952.209, 2667.600
952.692, 2762.771
953.174, 2868.220
953.656, 2973.311
954.138, 3068.201
954.620, 3162.717
955.102, 3283.290
955.584, 3418.195
956.066, 3532.971
956.548, 3582.086
957.031, 3648.684
957.513, 3768.125
957.995, 3910.426
958.477, 4027.843
958.959, 4119.462
959.441, 4203.218
959.923, 4283.133
960.405, 4351.745
960.888, 4394.138
961.370, 4422.886
961.852, 4458.394
962.334, 4514.050
962.816, 4548.189
963.298, 4538.711
963.780, 4520.207
964.262, 4521.939
964.744, 4545.136
965.227, 4519.184
965.709, 4443.558
966.191, 4361.648
966.673, 4317.191
967.155, 4270.315
967.637, 4175.238
968.119, 4037.741
968.601, 3907.802
969.083, 3808.265
969.566, 3700.812
970.048, 3575.833
970.530, 3437.822
971.012, 3301.323
971.494, 3165.174
971.976, 3029.004
972.458, 2886.770
972.940, 2751.917
973.422, 2640.687
973.905, 2538.687
974.387, 2426.980
974.869, 2290.690
975.351, 2166.427
975.833, 2057.184
976.315, 1956.412
976.797, 1858.307
977.279, 1763.117
977.761, 1671.958
978.244, 1585.212
978.726, 1501.055
979.208, 1419.545
979.690, 1340.293
980.172, 1260.843
980.654, 1181.665
981.136, 1116.180
981.619, 1067.432
982.101, 1020.407
982.583, 967.977
983.065, 914.363
983.547, 866.358
984.029, 824.336
984.511, 788.130
984.993, 760.869
985.475, 735.242
985.958, 712.000
986.440, 687.497
986.922, 657.156
987.404, 620.625
987.886, 577.448
988.368, 525.061
988.850, 478.598
989.332, 456.880
989.815, 447.833
990.297, 437.563
990.779, 424.394
991.261, 407.417
991.743, 382.171
992.225, 358.769
992.707, 343.936
993.189, 334.954
993.671, 309.036
994.154, 268.338
994.636, 238.112
995.118, 246.136
995.600, 257.171
996.082, 236.997
996.564, 199.929
997.046, 180.185
997.528, 198.205
998.010, 200.071
998.493, 179.591
998.975, 142.592
999.457, 79.113
999.939, 6.726
1000.421, 15.104
1000.903, 27.968
1001.385, 73.583
1001.867, 87.371
1002.349, 88.406
1002.832, 90.817
1003.314, 95.372
1003.796, 84.584
1004.278, 52.872
1004.760, 41.675
1005.242, 98.487
1005.724, 170.711
1006.206, 157.782
1006.689, 86.779
1007.171, 34.193
1007.653, 39.580
1008.135, 52.622
1008.617, 70.524
1009.099, 83.490
1009.581, 70.591
1010.063, 33.301
1010.545, 13.996
1011.028, 20.603
1011.510, 30.052
1011.992, 19.746
1012.474, 3.369
1012.956, 5.131
1013.438, 2.514
1013.920, 4.284
1014.402, 15.924
1014.885, 20.603
1015.367, 4.120
1015.849, 22.213
1016.331, 19.555
1016.813, 4.770
1017.295, 21.386
1017.777, 8.847
1018.259, 7.119
1018.741, 17.708
1019.224, 23.354
1019.706, 24.490
1020.188, 20.507
1020.670, 18.708
1021.152, 21.022
1021.634, 21.933
1022.116, 15.498
1022.598, 4.093
1023.081, 10.229
1023.563, 27.910
1024.045, 34.029
1024.527, 13.815
1025.009, 5.717
1025.491, 13.407
1025.973, 13.381
1026.455, 26.837
1026.938, 51.219
1027.420, 70.627
1027.902, 79.111
1028.384, 80.134
1028.866, 66.377
1029.348, 50.290
1029.830, 50.062
1030.312, 74.986
1030.794, 89.886
1031.276, 90.703
1031.759, 87.628
1032.241, 97.004
1032.723, 106.826
1033.205, 89.511
1033.687, 44.401
1034.169, 36.684
1034.651, 47.935
1035.133, 54.592
1035.616, 56.899
1036.098, 41.819
1036.580, 49.214
1037.062, 47.615
1037.544, 45.652
1038.026, 56.242
1038.508, 43.743
1038.990, 52.913
1039.473, 59.667
1039.955, 64.337
1040.437, 62.544
1040.919, 66.620
1041.401, 80.357
1041.883, 90.010
1042.365, 78.752
1042.847, 56.696
1043.329, 52.382
1043.812, 63.502
1044.294, 69.310
1044.776, 52.190
1045.258, 38.457
1045.740, 38.371
1046.222, 48.880
1046.704, 64.223
1047.186, 84.669
1047.668, 85.538
1048.151, 56.210
1048.633, 28.297
1049.115, 41.024
1049.597, 66.848
1050.079, 73.838
1050.561, 49.542
1051.043, 38.606
1051.525, 47.506
1052.008, 54.876
1052.490, 42.776
1052.972, 22.823
1053.454, 30.202
1053.936, 58.247
1054.418, 83.109
1054.900, 97.248
1055.382, 101.665
1055.865, 89.583
1056.347, 72.368
1056.829, 65.263
1057.311, 68.524
1057.793, 67.862
1058.275, 60.931
1058.757, 57.400
1059.239, 71.682
1059.721, 88.012
1060.203, 89.426
1060.686, 74.779
1061.168, 69.880
1061.650, 81.076
1062.132, 87.152
1062.614, 79.745
1063.096, 64.956
1063.578, 51.046
1064.060, 39.714
1064.543, 36.189
1065.025, 48.742
1065.507, 55.288
1065.989, 41.291
1066.471, 25.907
1066.953, 24.327
1067.435, 36.516
1067.917, 39.227
1068.400, 32.765
1068.882, 30.620
1069.364, 52.210
1069.846, 71.832
1070.328, 64.498
1070.810, 39.587
1071.292, 31.724
1071.774, 48.849
1072.256, 58.844
1072.739, 56.020
1073.221, 47.425
1073.703, 40.399
1074.185, 33.428
1074.667, 22.793
1075.149, 6.912
1075.631, 4.374
1076.113, 8.582
1076.596, 8.446
1077.078, 7.285
1077.560, 15.426
1078.042, 4.945
1078.524, 1.009
1079.006, 2.684
1079.488, 12.734
1079.970, 6.086
1080.453, 8.294
1080.935, 11.041
1081.417, 2.011
1081.899, 15.909
1082.381, 6.657
1082.863, 6.110
1083.345, 1.456
1083.827, 5.706
1084.309, 7.210
1084.792, 0.179
1085.274, 2.641
1085.756, 2.644
1086.238, 2.253
1086.720, 11.048
1087.202, 8.385
1087.684, 1.162
1088.166, 3.694
1088.648, 1.350
1089.131, 2.614
1089.613, 13.258
1090.095, 0.667
1090.577, 6.438
1091.059, 12.518
1091.541, 30.936
1092.023, 47.464
1092.505, 50.428
1092.988, 41.365
1093.470, 34.941
1093.952, 41.120
1094.434, 46.239
1094.916, 33.784
1095.398, 17.413
1095.880, 17.535
1096.362, 41.858
1096.844, 56.394
1097.327, 60.438
1097.809, 56.971
1098.291, 40.870
1098.773, 23.525
1099.255, 21.873
1099.737, 32.992
1100.219, 42.833
1100.701, 56.922
1101.183, 51.843
1101.666, 13.670
1102.148, 27.196
1102.630, 16.332
1103.112, 27.217
1103.594, 51.086
1104.076, 46.050
1104.558, 41.621
1105.040, 56.433
1105.523, 69.059
1106.005, 66.035
1106.487, 52.991
1106.969, 62.677
1107.451, 91.511
1107.933, 104.260
1108.415, 80.370
1108.897, 53.491
1109.380, 43.447
1109.862, 46.296
1110.344, 60.648
1110.826, 91.353
1111.308, 100.027
1111.790, 83.992
1112.272, 69.651
1112.754, 83.448
1113.236, 102.110
1113.719, 95.623
1114.201, 71.556
1114.683, 51.215
1115.165, 37.505
1115.647, 30.072
1116.129, 28.612
1116.611, 32.429
1117.093, 43.604
1117.575, 58.066
1118.058, 68.651
1118.540, 74.631
1119.022, 73.331
1119.504, 55.684
1119.986, 39.833
1120.468, 28.646
1120.950, 24.705
1121.432, 42.702
1121.915, 75.255
1122.397, 84.938
1122.879, 55.998
1123.361, 33.336
1123.843, 51.717
1124.325, 78.936
1124.807, 90.932
1125.289, 88.678
1125.771, 95.736
1126.254, 111.844
1126.736, 124.331
1127.218, 124.692
1127.700, 122.483
1128.182, 129.196
1128.664, 136.987
1129.146, 132.252
1129.628, 105.252
1130.110, 98.668
1130.593, 116.189
1131.075, 134.282
1131.557, 130.198
1132.039, 119.122
1132.521, 121.263
1133.003, 132.775
1133.485, 137.454
1133.967, 127.597
1134.450, 122.307
1134.932, 126.510
1135.414, 129.450
1135.896, 114.419
1136.378, 91.155
1136.860, 79.014
1137.342, 79.030
1137.824, 85.200
1138.307, 103.148
1138.789, 115.301
1139.271, 114.981
1139.753, 107.495
1140.235, 112.185
1140.717, 124.196
1141.199, 125.762
1141.681, 107.814
1142.163, 95.897
1142.646, 110.444
1143.128, 128.628
1143.610, 136.619
1144.092, 136.040
1144.574, 133.218
1145.056, 129.295
1145.538, 126.121
1146.020, 126.483
1146.502, 123.049
1146.985, 101.390
1147.467, 77.919
1147.949, 75.835
1148.431, 100.102
1148.913, 110.310
1149.395, 105.099
1149.877, 99.187
1150.359, 106.931
1150.842, 114.848
1151.324, 110.250
1151.806, 96.421
1152.288, 82.169
1152.770, 62.974
1153.252, 64.174
1153.734, 92.235
1154.216, 119.084
1154.698, 110.267
1155.181, 88.497
1155.663, 80.309
1156.145, 86.341
1156.627, 94.753
1157.109, 107.837
1157.591, 113.336
1158.073, 106.745
1158.555, 96.315
1159.037, 95.425
1159.520, 98.106
1160.002, 91.174
1160.484, 74.600
1160.966, 63.433
1161.448, 58.692
1161.930, 58.336
1162.412, 63.451
1162.894, 70.560
1163.377, 69.736
1163.859, 64.512
1164.341, 64.557
1164.823, 75.511
1165.305, 79.474
1165.787, 34.930
1166.269, 25.698
1166.751, 36.090
1167.234, 41.634
1167.716, 42.698
1168.198, 25.841
1168.680, 32.119
1169.162, 29.123
1169.644, 25.771
1170.126, 35.408
1170.608, 21.534
1171.090, 32.249
1171.573, 32.309
1172.055, 20.072
1172.537, 5.037
1173.019, 1.083
1173.501, 21.537
1173.983, 41.543
1174.465, 37.986
1174.947, 25.766
1175.430, 25.483
1175.912, 36.674
1176.394, 49.797
1176.876, 64.100
1177.358, 73.193
1177.840, 67.001
1178.322, 58.915
1178.804, 59.061
1179.286, 64.217
1179.769, 64.639
1180.251, 60.000
1180.733, 54.008
1181.215, 46.219
1181.697, 44.687
1182.179, 64.805
1182.661, 86.212
1183.143, 92.348
1183.625, 84.820
1184.108, 82.446
1184.590, 85.319
1185.072, 79.242
1185.554, 57.530
1186.036, 35.972
1186.518, 30.423
1187.000, 32.644
1187.482, 36.521
1187.965, 42.102
1188.447, 35.023
1188.929, 12.523
1189.411, 2.201
1189.893, 2.402
1190.375, 16.717
1190.857, 35.934
1191.339, 54.690
1191.822, 65.003
1192.304, 64.182
1192.786, 61.257
1193.268, 55.562
1193.750, 51.312
1194.232, 53.164
1194.714, 56.012
1195.196, 54.379
1195.678, 48.504
1196.161, 37.907
1196.643, 12.958
1197.125, 8.499
1197.607, 29.882
1198.089, 51.358
1198.571, 48.679
1199.053, 36.149
1199.535, 34.370
1200.017, 39.063
1200.500, 34.912
1200.982, 8.833
1201.464, 1.067
1201.946, 10.971
1202.428, 29.786
1202.910, 40.422
1203.392, 47.916
1203.874, 65.993
1204.357, 89.975
1204.839, 87.970
1205.321, 35.616
1205.803, 4.751
1206.285, 10.408
1206.767, 29.571
1207.249, 37.175
1207.731, 38.437
1208.214, 29.009
1208.696, 11.008
1209.178, 38.117
1209.660, 154.101
1210.142, 218.798
1210.624, 190.617
1211.106, 122.580
1211.588, 73.031
1212.070, 42.321
1212.552, 35.992
1213.035, 56.797
1213.517, 68.731
1213.999, 64.464
1214.481, 61.499
1214.963, 67.451
1215.445, 73.829
1215.927, 60.281
1216.409, 39.802
1216.892, 35.273
1217.374, 54.926
1217.856, 70.541
1218.338, 82.502
1218.820, 83.169
1219.302, 64.937
1219.784, 39.435
1220.266, 26.076
1220.749, 20.705
1221.231, 14.544
1221.713, 0.475
1222.195, 5.993
1222.677, 41.740
1223.159, 67.818
1223.641, 52.454
1224.123, 24.601
1224.605, 43.463
1225.088, 85.404
1225.570, 104.706
1226.052, 74.445
1226.534, 51.022
1227.016, 36.622
1227.498, 23.849
1227.980, 4.505
1228.462, 13.921
1228.944, 21.758
1229.427, 18.621
1229.909, 2.723
1230.391, 45.222
1230.873, 67.690
1231.355, 60.141
1231.837, 42.544
1232.319, 21.422
1232.801, 6.116
1233.284, 19.326
1233.766, 49.730
1234.248, 60.895
1234.730, 34.340
1235.212, 22.420
1235.694, 30.277
1236.176, 41.549
1236.658, 39.887
1237.141, 34.887
1237.623, 44.885
1238.105, 62.343
1238.587, 55.026
1239.069, 5.996
1239.551, 12.504
1240.033, 11.310
1240.515, 37.397
1240.997, 21.791
1241.479, 3.809
1241.962, 0.758
1242.444, 24.175
1242.926, 30.311
1243.408, 8.398
1243.890, 7.140
1244.372, 36.040
1244.854, 66.977
1245.336, 70.763
1245.819, 64.010
1246.301, 59.796
1246.783, 59.633
1247.265, 58.425
1247.747, 55.562
1248.229, 54.036
1248.711, 53.479
1249.193, 56.096
1249.676, 63.624
1250.158, 72.521
1250.640, 86.047
1251.122, 99.002
1251.604, 86.885
1252.086, 48.375
1252.568, 22.613
1253.050, 18.224
1253.532, 22.964
1254.015, 26.741
1254.497, 36.174
1254.979, 65.050
1255.461, 102.803
1255.943, 102.027
1256.425, 65.395
1256.907, 47.785
1257.389, 64.343
1257.871, 82.611
1258.354, 84.235
1258.836, 76.978
1259.318, 59.746
1259.800, 37.240
1260.282, 45.653
1260.764, 85.469
1261.246, 106.233
1261.728, 92.231
1262.211, 67.585
1262.693, 34.183
1263.175, 7.206
1263.657, 10.515
1264.139, 12.269
1264.621, 50.451
1265.103, 148.213
1265.585, 178.133
1266.068, 101.981
1266.550, 33.074
1267.032, 26.046
1267.514, 27.262
1267.996, 18.240
1268.478, 5.795
1268.960, 15.469
1269.442, 38.162
1269.924, 51.890
1270.407, 47.941
1270.889, 45.841
1271.371, 50.060
1271.853, 52.188
1272.335, 46.969
1272.817, 40.523
1273.299, 44.141
1273.781, 52.481
1274.264, 57.321
1274.746, 56.878
1275.228, 51.328
1275.710, 37.745
1276.192, 30.535
1276.674, 39.799
1277.156, 51.352
1277.638, 39.988
1278.120, 31.831
1278.603, 22.160
1279.085, 9.069
1279.567, 6.949
1280.049, 16.237
1280.531, 25.174
1281.013, 22.552
1281.495, 15.523
1281.977, 8.167
1282.459, 2.802
1282.942, 1.943
1283.424, 5.349
1283.906, 13.345
1284.388, 26.908
1284.870, 40.802
1285.352, 55.821
1285.834, 63.542
1286.316, 45.641
1286.799, 19.410
1287.281, 3.069
1287.763, 0.894
1288.245, 2.928
1288.727, 13.218
1289.209, 23.712
1289.691, 36.701
1290.173, 36.932
1290.656, 0.000
##END=



