##NAMES=Calderonite
##RRUFFID=R050538
##IDEAL CHEMISTRY=Pb^2+^_2_Fe^3+^(V^5+^O_4_)_2_(OH)
##LOCALITY=Tres de Mayo, Santa Cruz County, Arizona, USA
##OWNER=RRUFF
##SOURCE=Andy Anderson
##DESCRIPTION=Lathlike brown crystals.
##STATUS=The identification of this mineral is confirmed by single-crystal X-ray diffraction and chemical analysis.
##URL=rruff.info/R050538
##MEASURED CHEMISTRY=Pb_2.00_(Fe^3+^_0.96_Mn^3+^_0.02_Mg_0.02_)_Î£=1_(V_1.00_O_4_)_2_(OH)
90.26532, 0.0000000E+00
90.74744, 1.337708
91.22955, 10.78107
91.71167, 22.76379
92.19379, 31.51923
92.67590, 37.65454
93.15802, 40.27081
93.64014, 37.98157
94.12225, 33.80542
94.60437, 31.99347
95.08649, 34.52374
95.56860, 37.81616
96.05072, 36.10004
96.53284, 32.17108
97.01495, 31.59735
97.49707, 33.19067
97.97919, 30.65265
98.46130, 24.87567
98.94342, 20.85278
99.42554, 19.04596
99.90765, 18.22052
100.3898, 18.93976
100.8719, 19.54327
101.3540, 17.29071
101.8361, 11.47449
102.3182, 5.657410
102.8004, 0.9797970
103.2825, 2.572815
103.7646, 4.986023
104.2467, 6.529480
104.7288, 6.862122
105.2109, 5.085571
105.6931, 0.7426760
106.1752, 4.950500
106.6573, 11.73639
107.1394, 21.35101
107.6215, 29.22247
108.1036, 36.02979
108.5858, 41.44922
109.0679, 43.10333
109.5500, 37.40039
110.0321, 30.72723
110.5142, 26.51007
110.9963, 26.68524
111.4785, 27.09241
111.9606, 27.10095
112.4427, 26.74292
112.9248, 27.15808
113.4069, 28.67566
113.8890, 30.90430
114.3712, 33.56134
114.8533, 37.24994
115.3354, 40.72717
115.8175, 43.78650
116.2996, 46.51831
116.7817, 48.26685
117.2639, 48.37195
117.7460, 47.52069
118.2281, 46.58002
118.7102, 46.26080
119.1923, 45.66809
119.6744, 44.00909
120.1566, 35.57111
120.6387, 42.26514
121.1208, 46.04858
121.6029, 47.07666
122.0850, 37.06799
122.5671, 41.32770
123.0493, 39.87598
123.5314, 38.19244
124.0135, 44.46826
124.4956, 36.08429
124.9777, 42.24042
125.4598, 42.59406
125.9420, 45.59662
126.4241, 42.83667
126.9062, 41.84625
127.3883, 46.61255
127.8704, 48.20068
128.3525, 41.79193
128.8347, 44.14270
129.3168, 48.70728
129.7989, 53.05310
130.2810, 54.62756
130.7631, 54.15613
131.2452, 54.85687
131.7274, 58.29919
132.2095, 63.08514
132.6916, 65.15106
133.1737, 64.24329
133.6558, 62.49762
134.1379, 61.90436
134.6201, 62.45776
135.1022, 63.32013
135.5843, 64.16742
136.0664, 65.08313
136.5485, 66.62250
137.0306, 68.79651
137.5128, 71.61304
137.9949, 75.26337
138.4770, 79.87280
138.9591, 84.81555
139.4412, 90.41693
139.9233, 96.81995
140.4055, 100.9922
140.8876, 102.4780
141.3697, 102.1553
141.8518, 101.1097
142.3339, 98.51086
142.8160, 97.04926
143.2982, 98.17358
143.7803, 103.3000
144.2624, 106.2646
144.7445, 105.8531
145.2266, 103.6583
145.7087, 103.3698
146.1909, 105.9845
146.6730, 109.2437
147.1551, 112.4045
147.6372, 116.0663
148.1193, 118.6898
148.6014, 119.4395
149.0836, 118.9254
149.5657, 119.3126
150.0478, 121.3697
150.5299, 123.6930
151.0120, 125.6900
151.4941, 127.0279
151.9763, 128.3816
152.4584, 129.9064
152.9405, 131.5094
153.4226, 132.7753
153.9047, 132.8704
154.3868, 133.1217
154.8690, 134.2369
155.3511, 138.4045
155.8332, 141.1801
156.3153, 141.4831
156.7974, 139.5421
157.2795, 137.2605
157.7617, 134.3669
158.2438, 131.6743
158.7259, 129.7597
159.2080, 129.2540
159.6901, 129.0132
160.1722, 128.9016
160.6544, 128.8475
161.1365, 128.2510
161.6186, 126.4014
162.1007, 124.2877
162.5828, 122.8238
163.0649, 123.5714
163.5471, 124.3457
164.0292, 123.8636
164.5113, 121.9737
164.9934, 119.5436
165.4755, 116.5734
165.9576, 113.3917
166.4398, 110.4459
166.9219, 108.5797
167.4040, 106.4799
167.8861, 103.0908
168.3682, 98.28754
168.8503, 93.38861
169.3325, 88.91418
169.8146, 84.93005
170.2967, 81.59772
170.7788, 80.11871
171.2609, 78.65546
171.7430, 75.25079
172.2252, 69.58899
172.7073, 63.70435
173.1894, 59.23120
173.6715, 55.72931
174.1536, 52.35352
174.6357, 48.45007
175.1179, 44.47455
175.6000, 40.92737
176.0821, 37.87610
176.5642, 35.27924
177.0463, 33.23895
177.5284, 31.65552
178.0106, 30.25537
178.4927, 29.05603
178.9748, 27.90369
179.4569, 26.35822
179.9390, 24.17389
180.4211, 22.35150
180.9033, 22.23737
181.3854, 23.60455
181.8675, 25.33716
182.3496, 26.77319
182.8317, 28.10510
183.3138, 29.82898
183.7960, 31.94556
184.2781, 34.55280
184.7602, 37.84436
185.2423, 41.80219
185.7244, 46.02252
186.2065, 50.22766
186.6887, 54.55609
187.1708, 59.51099
187.6529, 65.24060
188.1350, 71.31183
188.6171, 76.66724
189.0992, 81.38770
189.5814, 86.54810
190.0635, 92.97418
190.5456, 100.5502
191.0277, 108.0031
191.5098, 115.1230
191.9919, 122.2133
192.4741, 129.8059
192.9562, 137.9297
193.4383, 146.4388
193.9204, 155.0601
194.4025, 163.7447
194.8846, 172.5594
195.3668, 181.3975
195.8489, 190.6114
196.3310, 201.3180
196.8131, 213.6862
197.2952, 225.8088
197.7773, 236.3250
198.2595, 245.1627
198.7416, 254.5135
199.2237, 264.6465
199.7058, 275.2479
200.1879, 285.3319
200.6700, 294.8430
201.1522, 304.5631
201.6343, 315.3110
202.1164, 327.2549
202.5985, 338.6196
203.0806, 349.0933
203.5627, 358.8027
204.0449, 367.8160
204.5270, 375.9224
205.0091, 384.0044
205.4912, 392.9794
205.9733, 403.1947
206.4554, 412.1306
206.9376, 419.3497
207.4197, 425.1027
207.9018, 430.5569
208.3839, 435.7323
208.8660, 440.5959
209.3481, 445.1797
209.8303, 449.6544
210.3124, 453.3409
210.7945, 456.2638
211.2766, 458.3879
211.7587, 459.4836
212.2408, 459.4473
212.7230, 458.6049
213.2051, 457.0688
213.6872, 454.7075
214.1693, 452.0006
214.6514, 449.2170
215.1335, 445.9922
215.6157, 441.0573
216.0978, 434.1062
216.5799, 425.8800
217.0620, 416.6320
217.5441, 406.0115
218.0262, 395.2836
218.5084, 384.5490
218.9905, 373.6987
219.4726, 362.8423
219.9547, 351.9081
220.4368, 340.8263
220.9189, 329.8070
221.4011, 319.1271
221.8832, 307.5179
222.3653, 294.3691
222.8474, 280.2236
223.3295, 266.8575
223.8116, 254.8626
224.2938, 243.2012
224.7759, 231.1738
225.2580, 218.3648
225.7401, 206.4231
226.2222, 195.5018
226.7043, 185.5148
227.1865, 175.6437
227.6686, 166.2021
228.1507, 156.6927
228.6328, 146.8571
229.1149, 136.3235
229.5970, 126.3904
230.0792, 117.2676
230.5613, 108.8176
231.0434, 100.8396
231.5255, 93.59155
232.0076, 86.61884
232.4897, 79.75049
232.9719, 72.86346
233.4540, 66.42468
233.9361, 60.42438
234.4182, 54.86621
234.9003, 49.63037
235.3824, 44.61041
235.8646, 40.06207
236.3467, 36.15686
236.8288, 33.15875
237.3109, 30.19452
237.7930, 27.25000
238.2751, 24.29181
238.7573, 21.30115
239.2394, 18.06805
239.7215, 15.06384
240.2036, 12.46478
240.6857, 10.31598
241.1678, 8.460327
241.6500, 7.019287
242.1321, 5.835266
242.6142, 4.468262
243.0963, 2.802673
243.5784, 1.134949
244.0605, 0.4120480
244.5427, 1.895630
245.0248, 3.111145
245.5069, 3.919861
245.9890, 4.509766
246.4711, 5.327759
246.9532, 6.683044
247.4354, 7.752319
247.9175, 8.167603
248.3996, 7.746460
248.8817, 7.189636
249.3638, 6.206177
249.8459, 5.230042
250.3281, 5.203918
250.8102, 6.869324
251.2923, 8.165405
251.7744, 8.253662
252.2565, 6.716675
252.7386, 5.742676
253.2208, 5.680176
253.7029, 5.921692
254.1850, 5.456177
254.6671, 3.885071
255.1492, 2.411133
255.6313, 1.525757
256.1135, 1.407776
256.5956, 0.7080690
257.0777, 0.8752440
257.5598, 2.715454
258.0419, 3.910339
258.5240, 4.114014
259.0062, 4.426636
259.4883, 5.340027
259.9704, 6.944275
260.4525, 7.493774
260.9346, 6.551941
261.4167, 5.102112
261.8989, 4.264771
262.3810, 4.215576
262.8631, 4.403076
263.3452, 4.888977
263.8273, 5.677063
264.3094, 5.738586
264.7916, 4.853577
265.2737, 3.628174
265.7558, 2.627625
266.2379, 1.951233
266.7200, 1.248535
267.2021, 0.4931640
267.6843, 0.3339230
268.1664, 1.505310
268.6485, 3.134338
269.1306, 4.885376
269.6127, 6.539124
270.0948, 8.171570
270.5770, 9.430603
271.0591, 10.33734
271.5412, 10.82867
272.0233, 10.47327
272.5054, 9.095581
272.9875, 7.371826
273.4697, 5.767090
273.9518, 4.298035
274.4339, 2.806519
274.9160, 1.321472
275.3981, 0.2255860
275.8802, 2.033020
276.3624, 4.062012
276.8445, 6.460571
277.3266, 9.435242
277.8087, 13.03406
278.2908, 16.47809
278.7729, 19.51172
279.2551, 22.59167
279.7372, 26.85724
280.2193, 32.49152
280.7014, 38.24243
281.1835, 43.26593
281.6656, 47.58545
282.1478, 52.70880
282.6299, 58.72162
283.1120, 65.50732
283.5941, 73.11902
284.0762, 81.63220
284.5583, 90.03540
285.0405, 97.72003
285.5226, 104.8135
286.0047, 112.6727
286.4868, 121.5023
286.9689, 130.4365
287.4510, 138.0896
287.9332, 144.5287
288.4153, 151.2331
288.8974, 158.6614
289.3795, 166.7388
289.8616, 175.2379
290.3438, 184.2603
290.8259, 192.9782
291.3080, 200.3270
291.7901, 206.4327
292.2722, 212.4525
292.7543, 218.7300
293.2365, 225.1155
293.7186, 231.4445
294.2007, 237.6790
294.6828, 243.2286
295.1649, 247.3199
295.6470, 250.2183
296.1292, 252.9180
296.6113, 255.7097
297.0934, 258.3596
297.5755, 260.5094
298.0576, 262.1808
298.5397, 263.5488
299.0219, 264.2971
299.5040, 264.8848
299.9861, 266.3649
300.4682, 269.1365
300.9503, 272.4775
301.4324, 275.6823
301.9146, 278.7073
302.3967, 281.6543
302.8788, 284.1567
303.3609, 286.7840
303.8430, 290.2889
304.3251, 294.7681
304.8073, 300.0385
305.2894, 306.3566
305.7715, 313.4302
306.2536, 320.6855
306.7357, 327.3482
307.2178, 334.2242
307.7000, 342.0997
308.1821, 351.0255
308.6642, 360.2874
309.1463, 369.4094
309.6284, 378.5911
310.1105, 388.2701
310.5927, 398.4775
311.0748, 409.0785
311.5569, 420.1279
312.0390, 431.6664
312.5211, 443.6014
313.0032, 455.7492
313.4854, 468.3976
313.9675, 481.7091
314.4496, 496.2156
314.9317, 511.0466
315.4138, 525.7610
315.8959, 540.4020
316.3781, 555.5953
316.8602, 572.3743
317.3423, 589.2411
317.8244, 605.0051
318.3065, 618.5956
318.7886, 632.2039
319.2708, 646.1351
319.7529, 660.5021
320.2350, 675.6848
320.7171, 693.2454
321.1992, 710.3726
321.6813, 725.4415
322.1635, 737.2184
322.6456, 749.2299
323.1277, 763.0540
323.6098, 777.3658
324.0919, 789.9983
324.5740, 799.2375
325.0562, 807.8375
325.5383, 816.9803
326.0204, 827.4183
326.5025, 835.3914
326.9846, 839.3363
327.4667, 841.2384
327.9489, 843.2608
328.4310, 847.3779
328.9131, 849.5491
329.3952, 848.8853
329.8773, 845.3900
330.3594, 841.4304
330.8416, 837.0604
331.3237, 832.2780
331.8058, 827.0902
332.2879, 821.4705
332.7700, 815.3937
333.2521, 808.5952
333.7343, 801.1689
334.2164, 793.8810
334.6985, 787.3259
335.1806, 780.0916
335.6627, 771.2506
336.1448, 760.3322
336.6270, 749.4535
337.1091, 738.7106
337.5912, 728.1386
338.0733, 717.7556
338.5554, 707.8827
339.0375, 697.5336
339.5197, 686.1359
340.0018, 673.7345
340.4839, 661.4896
340.9660, 649.7380
341.4481, 637.9478
341.9302, 625.6140
342.4124, 612.5547
342.8945, 599.8350
343.3766, 587.6110
343.8587, 575.9729
344.3408, 564.6769
344.8229, 553.7646
345.3051, 543.1984
345.7872, 533.3100
346.2693, 524.0350
346.7514, 514.1403
347.2335, 503.0123
347.7156, 491.7017
348.1978, 482.7441
348.6799, 476.0339
349.1620, 470.0312
349.6441, 463.6250
350.1262, 457.1355
350.6083, 451.4137
351.0905, 446.5533
351.5726, 442.2070
352.0547, 437.8245
352.5368, 433.5834
353.0189, 429.9774
353.5010, 427.0052
353.9832, 424.8096
354.4653, 423.8458
354.9474, 424.1355
355.4295, 424.7334
355.9116, 424.8268
356.3937, 424.8021
356.8759, 425.2051
357.3580, 426.6465
357.8401, 428.0881
358.3222, 428.5972
358.8043, 428.3439
359.2864, 428.4949
359.7686, 430.3129
360.2507, 432.5206
360.7328, 434.0217
361.2149, 434.4822
361.6970, 434.3235
362.1791, 433.6157
362.6613, 432.4028
363.1434, 430.7952
363.6255, 429.0485
364.1076, 426.7200
364.5897, 423.5828
365.0718, 419.6846
365.5540, 415.0210
366.0361, 409.0527
366.5182, 402.5079
367.0003, 396.2617
367.4824, 391.8578
367.9645, 386.2967
368.4467, 378.5471
368.9288, 368.6599
369.4109, 358.8846
369.8930, 349.1520
370.3751, 339.6128
370.8572, 330.3019
371.3394, 321.0919
371.8215, 312.5682
372.3036, 305.0740
372.7857, 298.2883
373.2678, 290.9404
373.7499, 282.7056
374.2321, 274.3197
374.7142, 266.2258
375.1963, 258.4572
375.6784, 250.4749
376.1605, 242.1325
376.6426, 233.8101
377.1248, 226.5008
377.6069, 220.2402
378.0890, 214.2067
378.5711, 208.3040
379.0532, 202.4362
379.5353, 196.4222
380.0175, 190.2110
380.4996, 183.7827
380.9817, 176.8879
381.4638, 169.6526
381.9459, 162.7909
382.4280, 156.5808
382.9102, 150.7538
383.3923, 145.0871
383.8744, 139.4998
384.3565, 133.8052
384.8386, 127.7575
385.3207, 121.5453
385.8029, 115.9069
386.2850, 110.9366
386.7671, 106.0469
387.2492, 100.4175
387.7313, 94.34937
388.2134, 88.66217
388.6956, 84.28955
389.1777, 80.19824
389.6598, 75.16748
390.1419, 69.28827
390.6240, 63.83112
391.1061, 59.83698
391.5883, 56.50073
392.0704, 52.94073
392.5525, 48.66278
393.0346, 44.49554
393.5167, 40.81812
393.9988, 37.49310
394.4810, 34.07172
394.9631, 29.74744
395.4452, 25.79077
395.9273, 23.04041
396.4094, 22.11517
396.8915, 20.70627
397.3737, 17.94318
397.8558, 14.60873
398.3379, 11.66803
398.8200, 9.140930
399.3021, 7.085480
399.7842, 5.738953
400.2664, 5.092865
400.7485, 3.945953
401.2306, 1.772980
401.7127, 0.3723450
402.1948, 1.762360
402.6769, 1.922546
403.1591, 2.387512
403.6412, 3.392700
404.1233, 4.683380
404.6054, 5.662689
405.0875, 6.209900
405.5696, 6.736755
406.0518, 7.451752
406.5339, 8.363068
407.0160, 9.020081
407.4981, 9.366760
407.9802, 9.542816
408.4623, 9.653290
408.9445, 9.700592
409.4266, 9.826172
409.9087, 10.18567
410.3908, 10.53635
410.8729, 10.20963
411.3550, 9.219208
411.8372, 8.058075
412.3193, 6.932129
412.8014, 5.910187
413.2835, 5.271240
413.7656, 5.175903
414.2477, 4.989441
414.7299, 3.970276
415.2120, 2.326294
415.6941, 0.5506590
416.1762, 1.435760
416.6583, 3.239563
417.1404, 4.315277
417.6226, 4.683624
418.1047, 5.203918
418.5868, 6.463379
419.0689, 8.059113
419.5510, 9.614655
420.0331, 11.00101
420.5153, 12.36368
420.9974, 13.61807
421.4795, 14.88171
421.9616, 16.44174
422.4437, 18.74771
422.9258, 21.06607
423.4080, 23.06238
423.8901, 24.61975
424.3722, 26.27496
424.8543, 28.35165
425.3364, 30.42450
425.8185, 32.04520
426.3007, 32.66165
426.7828, 33.64392
427.2649, 35.18491
427.7470, 37.24670
428.2291, 39.68558
428.7112, 42.69778
429.1934, 45.71725
429.6755, 48.38330
430.1576, 50.53421
430.6397, 53.22125
431.1218, 56.76880
431.6039, 60.36615
432.0861, 62.52237
432.5682, 63.12622
433.0503, 63.92584
433.5324, 65.57184
434.0145, 67.87231
434.4966, 70.24454
434.9788, 72.69864
435.4609, 75.07642
435.9430, 77.07211
436.4251, 78.89850
436.9072, 81.18759
437.3893, 84.18076
437.8715, 87.36411
438.3536, 90.17447
438.8357, 92.70013
439.3178, 95.18762
439.7999, 97.63443
440.2820, 100.1742
440.7642, 103.0436
441.2463, 106.2671
441.7284, 109.2117
442.2105, 111.2801
442.6926, 113.0246
443.1747, 114.9808
443.6569, 117.5056
444.1390, 119.9987
444.6211, 122.5231
445.1032, 124.9054
445.5853, 126.5924
446.0674, 126.9860
446.5496, 127.1382
447.0317, 127.4239
447.5138, 127.8932
447.9959, 128.3790
448.4780, 128.9233
448.9601, 129.4889
449.4423, 130.0392
449.9244, 130.5953
450.4065, 131.1318
450.8886, 131.7133
451.3707, 132.2663
451.8528, 132.5700
452.3350, 132.7507
452.8171, 132.2568
453.2992, 130.4376
453.7813, 127.2473
454.2634, 124.7817
454.7455, 123.1652
455.2277, 121.8892
455.7098, 120.4731
456.1919, 118.8760
456.6740, 116.6090
457.1561, 113.1675
457.6382, 109.3396
458.1204, 106.7457
458.6025, 105.2122
459.0846, 103.7224
459.5667, 101.3972
460.0488, 98.67404
460.5309, 96.25690
461.0131, 94.32611
461.4952, 92.25107
461.9773, 89.52393
462.4594, 86.42926
462.9415, 83.33670
463.4236, 80.56403
463.9058, 77.67313
464.3879, 74.16385
464.8700, 70.22910
465.3521, 66.96295
465.8342, 65.26605
466.3163, 63.74759
466.7985, 61.61966
467.2806, 58.41833
467.7627, 55.39197
468.2448, 52.41269
468.7269, 49.72824
469.2090, 47.71527
469.6912, 46.84195
470.1733, 45.76138
470.6554, 44.10837
471.1375, 41.95993
471.6196, 39.95773
472.1017, 38.08389
472.5839, 36.36819
473.0660, 34.85962
473.5481, 33.56079
474.0302, 32.13345
474.5123, 30.46243
474.9944, 28.79611
475.4766, 27.42377
475.9587, 26.33099
476.4408, 25.58734
476.9229, 25.56009
477.4050, 25.74451
477.8871, 25.26462
478.3693, 24.16937
478.8514, 22.90460
479.3335, 21.64050
479.8156, 20.41864
480.2977, 19.22836
480.7798, 17.94443
481.2620, 17.14377
481.7441, 17.59537
482.2262, 18.64990
482.7083, 19.34311
483.1904, 18.84875
483.6725, 18.37872
484.1547, 18.62457
484.6368, 19.51077
485.1189, 19.78864
485.6010, 18.57440
486.0831, 17.23886
486.5652, 16.52432
487.0474, 16.89050
487.5295, 16.85184
488.0116, 16.16434
488.4937, 15.25650
488.9758, 14.75641
489.4579, 14.82574
489.9401, 14.80890
490.4222, 14.48846
490.9043, 13.96054
491.3864, 13.73779
491.8685, 13.88510
492.3506, 13.87766
492.8328, 13.22449
493.3149, 12.08246
493.7970, 11.12531
494.2791, 10.40445
494.7612, 9.859802
495.2433, 9.535767
495.7255, 9.325897
496.2076, 8.930298
496.6897, 7.957947
497.1718, 7.038147
497.6539, 6.938507
498.1360, 7.476044
498.6182, 7.922791
499.1003, 7.768799
499.5824, 7.478424
500.0645, 7.417206
500.5466, 7.682037
501.0287, 7.844238
501.5109, 7.702240
501.9930, 7.431458
502.4751, 7.216339
502.9572, 7.455597
503.4393, 7.294800
503.9214, 6.097839
504.4036, 4.394897
504.8857, 4.195496
505.3678, 6.677216
505.8499, 8.606201
506.3320, 8.480408
506.8141, 6.133972
507.2963, 4.156860
507.7784, 2.464386
508.2605, 1.301300
508.7426, 1.120422
509.2247, 1.847961
509.7068, 2.331116
510.1890, 2.307617
510.6711, 2.036926
511.1532, 1.980103
511.6353, 2.073669
512.1174, 2.048859
512.5995, 1.644073
513.0817, 1.107880
513.5638, 0.7720340
514.0459, 0.6332400
514.5280, 0.4486080
515.0101, 1.7792000E-02
515.4922, 0.5650020
515.9744, 1.002136
516.4565, 1.308197
516.9386, 1.469971
517.4207, 1.328857
517.9028, 1.067871
518.3849, 0.9889530
518.8671, 1.350311
519.3492, 1.673096
519.8313, 1.860657
520.3134, 1.913208
520.7955, 1.901154
521.2776, 1.694611
521.7598, 1.623138
522.2419, 1.981079
522.7240, 2.950714
523.2061, 3.359924
523.6882, 3.036835
524.1703, 2.470917
524.6525, 2.368103
525.1346, 2.694244
525.6167, 2.863434
526.0988, 2.672760
526.5809, 2.272400
527.0630, 1.779114
527.5452, 1.252167
528.0273, 1.030365
528.5094, 1.693451
528.9915, 2.574524
529.4736, 2.931488
529.9557, 2.701080
530.4379, 2.188324
530.9200, 1.147522
531.4021, 0.1297910
531.8842, 0.2869570
532.3663, 0.6591190
532.8484, 1.331726
533.3306, 1.104584
533.8127, 0.3411870
534.2948, 0.1961360
534.7769, 0.3499150
535.2590, 0.3674930
535.7411, 0.2151490
536.2233, 8.9661002E-02
536.7054, 2.4475001E-02
537.1875, 0.6668400
537.6696, 1.248505
538.1517, 1.148682
538.6339, 0.3077700
539.1160, 0.3684390
539.5981, 0.8705140
540.0802, 1.075867
540.5623, 0.5764160
541.0444, 0.4617920
541.5266, 1.061798
542.0087, 0.6908870
542.4908, 7.8130001E-03
542.9729, 0.1093140
543.4550, 0.2791140
543.9371, 0.7159730
544.4193, 0.8798830
544.9014, 1.035583
545.3835, 1.496674
545.8656, 2.309967
546.3477, 2.900879
546.8298, 2.716309
547.3120, 2.384247
547.7941, 2.428467
548.2762, 3.344391
548.7583, 4.062225
549.2404, 4.417267
549.7225, 4.553680
550.2047, 4.705780
550.6868, 4.885101
551.1689, 5.044678
551.6510, 5.134552
552.1331, 5.189941
552.6152, 5.504211
553.0974, 6.146088
553.5795, 6.737396
554.0616, 7.005188
554.5437, 6.998505
555.0258, 6.958252
555.5079, 6.886505
555.9901, 6.918152
556.4722, 6.988892
556.9543, 7.286133
557.4364, 8.279724
557.9185, 10.50665
558.4006, 12.80325
558.8828, 14.64258
559.3649, 15.84961
559.8470, 16.06583
560.3291, 13.96198
560.8112, 11.89685
561.2933, 10.94470
561.7755, 11.15222
562.2576, 11.47833
562.7397, 11.92465
563.2218, 12.36090
563.7039, 12.71170
564.1860, 12.91940
564.6682, 13.14981
565.1503, 13.43475
565.6324, 13.71643
566.1145, 13.90668
566.5966, 13.99588
567.0787, 14.07840
567.5609, 14.10648
568.0430, 14.23367
568.5251, 14.98517
569.0072, 16.26965
569.4893, 17.27466
569.9714, 17.50833
570.4536, 17.22864
570.9357, 16.64490
571.4178, 15.78766
571.8999, 15.06635
572.3820, 14.82544
572.8641, 14.82132
573.3463, 14.82419
573.8284, 14.71939
574.3105, 14.73853
574.7926, 15.02063
575.2747, 15.49026
575.7568, 16.03107
576.2390, 16.93231
576.7211, 17.47345
577.2032, 17.46393
577.6853, 17.04034
578.1674, 16.58176
578.6495, 15.93762
579.1317, 15.76227
579.6138, 16.64182
580.0959, 18.32919
580.5780, 18.68561
581.0601, 17.63846
581.5422, 16.41104
582.0244, 16.05914
582.5065, 16.29172
582.9886, 16.41006
583.4707, 16.31610
583.9528, 16.17880
584.4349, 15.99097
584.9171, 15.90170
585.3992, 16.13672
585.8813, 17.42685
586.3634, 18.30600
586.8455, 17.86969
587.3276, 16.53088
587.8098, 15.41656
588.2919, 14.66580
588.7740, 14.31726
589.2561, 14.61105
589.7382, 15.54776
590.2203, 15.47369
590.7025, 13.79242
591.1846, 12.18845
591.6667, 11.91913
592.1488, 13.09753
592.6309, 13.79913
593.1130, 13.91394
593.5952, 13.74445
594.0773, 13.61462
594.5594, 13.51349
595.0415, 13.34793
595.5236, 13.02515
596.0057, 12.75748
596.4879, 12.85986
596.9700, 13.19467
597.4521, 13.44217
597.9342, 13.43555
598.4163, 13.35083
598.8984, 13.26581
599.3806, 13.17163
599.8627, 13.03970
600.3448, 12.98312
600.8269, 12.77664
601.3090, 12.27460
601.7911, 11.34543
602.2733, 10.61316
602.7554, 10.07471
603.2375, 9.737549
603.7196, 9.672333
604.2017, 9.919952
604.6838, 10.02499
605.1660, 9.899658
605.6481, 9.708160
606.1302, 9.736176
606.6123, 9.939087
607.0944, 10.11029
607.5765, 10.20590
608.0587, 10.20233
608.5408, 9.931885
609.0229, 9.506195
609.5050, 9.337585
609.9871, 10.00107
610.4692, 10.68942
610.9514, 10.80869
611.4335, 10.28433
611.9156, 9.989075
612.3977, 10.41736
612.8798, 10.87878
613.3619, 10.94626
613.8441, 10.41803
614.3262, 9.958679
614.8083, 9.451630
615.2904, 9.178528
615.7725, 9.715729
616.2546, 11.14414
616.7368, 11.97467
617.2189, 11.80542
617.7010, 11.12537
618.1831, 10.71802
618.6652, 10.54755
619.1473, 10.48218
619.6295, 10.62299
620.1116, 10.72751
620.5937, 10.43481
621.0758, 9.835236
621.5579, 9.397614
622.0400, 9.488770
622.5222, 9.693115
623.0043, 9.689850
623.4864, 9.339233
623.9685, 9.427948
624.4506, 10.36560
624.9327, 11.48132
625.4149, 12.35443
625.8970, 12.91187
626.3791, 13.40036
626.8612, 13.81656
627.3433, 14.18759
627.8254, 14.38986
628.3076, 14.45224
628.7897, 15.17560
629.2718, 17.13959
629.7539, 19.24240
630.2360, 19.16043
630.7181, 17.61835
631.2003, 16.90042
631.6824, 19.41519
632.1645, 22.21536
632.6466, 22.82660
633.1287, 21.52148
633.6108, 20.25491
634.0930, 19.40656
634.5751, 19.01706
635.0572, 19.21658
635.5393, 20.14825
636.0214, 20.91489
636.5035, 21.44400
636.9857, 21.89890
637.4678, 22.36053
637.9499, 22.80344
638.4320, 23.45856
638.9141, 24.38425
639.3962, 25.33154
639.8784, 25.76971
640.3605, 25.87814
640.8426, 26.52649
641.3247, 28.10748
641.8068, 30.01285
642.2889, 31.84811
642.7711, 33.50690
643.2532, 34.81631
643.7353, 34.93207
644.2174, 35.38623
644.6995, 37.19238
645.1816, 40.12738
645.6638, 42.66727
646.1459, 44.22369
646.6280, 45.70963
647.1101, 47.46048
647.5922, 49.47324
648.0743, 51.39154
648.5565, 53.11145
649.0386, 54.92148
649.5207, 57.01688
650.0028, 59.36819
650.4849, 61.78189
650.9670, 64.23282
651.4492, 66.61432
651.9313, 68.60657
652.4134, 70.47131
652.8955, 72.65546
653.3776, 75.42905
653.8597, 78.33179
654.3419, 80.98322
654.8240, 83.61368
655.3061, 86.52502
655.7882, 90.21924
656.2703, 93.73672
656.7524, 96.53156
657.2346, 99.01981
657.7167, 102.5457
658.1988, 107.6747
658.6809, 112.5239
659.1630, 116.3870
659.6451, 119.4554
660.1273, 122.7813
660.6094, 126.4312
661.0915, 130.0705
661.5736, 133.1333
662.0557, 136.1398
662.5378, 140.3125
663.0200, 145.7115
663.5021, 151.2974
663.9842, 156.5550
664.4663, 161.5429
664.9484, 166.1725
665.4305, 170.3182
665.9127, 174.5499
666.3948, 179.0468
666.8769, 183.7132
667.3590, 188.5025
667.8411, 193.4982
668.3232, 198.3431
668.8054, 202.9003
669.2875, 207.3033
669.7696, 211.8636
670.2517, 216.5963
670.7338, 220.8385
671.2159, 224.1034
671.6981, 227.0654
672.1802, 231.2246
672.6623, 236.1606
673.1444, 240.5027
673.6265, 242.9433
674.1086, 244.9233
674.5908, 247.6768
675.0729, 250.9846
675.5550, 253.6158
676.0371, 254.7185
676.5192, 255.5259
677.0013, 256.6647
677.4835, 258.1898
677.9656, 259.6540
678.4477, 261.1077
678.9298, 262.4450
679.4119, 263.7871
679.8940, 265.1405
680.3762, 265.0364
680.8583, 263.2421
681.3404, 260.9828
681.8225, 259.7752
682.3046, 259.0741
682.7867, 257.7353
683.2689, 255.4738
683.7510, 252.5921
684.2331, 249.0913
684.7152, 245.2053
685.1973, 241.2883
685.6794, 236.8249
686.1616, 232.9313
686.6437, 230.2474
687.1258, 228.1212
687.6079, 225.4404
688.0900, 222.2675
688.5721, 218.3421
689.0543, 213.5606
689.5364, 208.1723
690.0185, 202.2124
690.5006, 195.6979
690.9827, 190.0693
691.4648, 187.0961
691.9470, 184.9073
692.4291, 180.2175
692.9112, 173.4449
693.3933, 166.8461
693.8754, 161.4163
694.3575, 156.7529
694.8397, 152.8608
695.3218, 149.8257
695.8039, 146.4115
696.2860, 142.2990
696.7681, 137.8467
697.2502, 133.1313
697.7324, 128.1055
698.2145, 123.2631
698.6966, 118.4487
699.1787, 114.1822
699.6608, 111.4532
700.1429, 109.8865
700.6251, 107.4483
701.1072, 103.7906
701.5893, 99.79535
702.0714, 96.25745
702.5535, 92.94894
703.0356, 89.48553
703.5178, 85.47153
703.9999, 81.72354
704.4820, 78.58557
704.9641, 75.93411
705.4462, 73.54944
705.9283, 71.54413
706.4105, 69.59821
706.8926, 67.70178
707.3747, 65.79132
707.8568, 63.77771
708.3389, 61.66156
708.8210, 59.27612
709.3032, 56.45410
709.7853, 53.44958
710.2674, 50.70465
710.7495, 48.23535
711.2316, 46.08954
711.7137, 44.48010
712.1959, 43.04126
712.6780, 41.59515
713.1601, 40.10645
713.6422, 38.42438
714.1243, 36.13928
714.6064, 34.03796
715.0886, 32.57336
715.5707, 31.78394
716.0528, 30.42120
716.5349, 28.36346
717.0170, 26.07013
717.4991, 23.59576
717.9813, 21.04877
718.4634, 19.45148
718.9455, 18.86053
719.4276, 18.43622
719.9097, 17.47449
720.3918, 16.23755
720.8740, 14.97205
721.3561, 13.67938
721.8382, 12.65375
722.3203, 12.37177
722.8024, 12.23102
723.2845, 11.71313
723.7667, 10.54700
724.2488, 9.388733
724.7309, 8.160095
725.2130, 7.033386
725.6951, 6.273193
726.1772, 5.899231
726.6594, 5.453308
727.1415, 4.797119
727.6236, 4.140808
728.1057, 4.013000
728.5878, 4.129028
729.0699, 3.719177
729.5521, 2.139587
730.0342, 0.5977170
730.5163, 4.3212999E-02
730.9984, 8.8196002E-02
731.4805, 8.1665002E-02
731.9626, 0.3862300
732.4448, 0.3391720
732.9269, 0.4586180
733.4090, 1.626099
733.8911, 1.960388
734.3732, 1.225769
734.8553, 0.5343020
735.3375, 0.3209230
735.8196, 0.3047490
736.3017, 0.5045170
736.7838, 1.923828
737.2659, 2.839355
737.7480, 2.351379
738.2302, 1.301270
738.7123, 8.0504999E-02
739.1944, 1.148132
739.6765, 1.681458
740.1586, 0.5316160
740.6407, 0.6749270
741.1229, 1.082764
741.6050, 0.7230830
742.0871, 1.083984
742.5692, 2.569458
743.0513, 3.782959
743.5334, 3.896851
744.0156, 3.022217
744.4977, 2.135071
744.9798, 1.217102
745.4619, 0.4991460
745.9440, 3.5767000E-02
746.4261, 0.1171260
746.9083, 0.9291990
747.3904, 3.185486
747.8725, 4.834290
748.3546, 4.675659
748.8367, 3.902954
749.3188, 3.226379
749.8010, 2.736023
750.2831, 2.470459
750.7652, 2.347839
751.2473, 2.591553
751.7294, 3.364441
752.2115, 4.681519
752.6937, 6.474426
753.1758, 8.840332
753.6579, 10.92731
754.1400, 11.38965
754.6221, 11.12146
755.1042, 11.72205
755.5864, 13.80872
756.0685, 15.52893
756.5506, 15.58923
757.0327, 14.93866
757.5148, 14.60272
757.9969, 14.55975
758.4791, 15.01953
758.9612, 16.29675
759.4433, 17.73657
759.9254, 18.63293
760.4075, 18.96826
760.8896, 18.79065
761.3718, 17.96741
761.8539, 17.11420
762.3360, 17.08466
762.8181, 17.63202
763.3002, 18.29675
763.7823, 19.15454
764.2645, 19.65125
764.7466, 19.45276
765.2287, 18.72211
765.7108, 17.61017
766.1929, 15.92017
766.6750, 14.15649
767.1572, 12.24493
767.6393, 10.39618
768.1214, 8.981262
768.6035, 8.034058
769.0856, 7.146851
769.5677, 6.271240
770.0499, 5.218994
770.5320, 3.630981
771.0141, 1.642761
771.4962, 0.4040530
771.9783, 2.328979
772.4604, 4.295349
772.9426, 6.276489
773.4247, 8.361694
773.9068, 10.68036
774.3889, 13.71612
774.8710, 16.22021
775.3531, 17.68579
775.8353, 18.60834
776.3174, 20.57440
776.7995, 23.62518
777.2816, 26.79926
777.7637, 29.76416
778.2458, 32.58160
778.7280, 35.23718
779.2101, 37.85791
779.6922, 40.71283
780.1743, 44.32092
780.6564, 47.96008
781.1385, 51.12207
781.6207, 53.98950
782.1028, 57.32806
782.5849, 61.21741
783.0670, 65.61389
783.5491, 70.91626
784.0313, 76.65192
784.5134, 80.78088
784.9955, 83.31879
785.4776, 85.81720
785.9597, 88.73419
786.4418, 92.39062
786.9240, 97.59772
787.4061, 103.9211
787.8882, 109.9533
788.3703, 114.7102
788.8524, 119.1733
789.3345, 123.4452
789.8167, 127.6812
790.2988, 132.5104
790.7809, 138.3516
791.2630, 144.2585
791.7451, 149.6560
792.2272, 154.8145
792.7094, 162.4045
793.1915, 172.2675
793.6736, 181.8728
794.1557, 189.1842
794.6378, 195.5652
795.1199, 202.5703
795.6021, 210.0887
796.0842, 217.9022
796.5663, 225.7916
797.0484, 233.9333
797.5305, 241.9611
798.0126, 249.9031
798.4948, 259.2815
798.9769, 270.5543
799.4590, 282.2500
799.9411, 293.6718
800.4232, 304.8899
800.9053, 315.3260
801.3875, 325.1753
801.8696, 335.7723
802.3517, 348.3623
802.8338, 361.9587
803.3159, 375.2590
803.7980, 388.4883
804.2802, 402.7927
804.7623, 419.7224
805.2444, 436.3700
805.7265, 451.1708
806.2086, 464.5403
806.6907, 479.9327
807.1729, 497.8444
807.6550, 515.6962
808.1371, 532.0765
808.6192, 547.7380
809.1013, 564.5255
809.5834, 582.3961
810.0656, 601.1649
810.5477, 621.5981
811.0298, 642.1229
811.5119, 661.5597
811.9940, 680.2054
812.4761, 700.0160
812.9583, 721.8730
813.4404, 744.1495
813.9225, 766.4127
814.4046, 788.7072
814.8867, 812.3632
815.3688, 837.2184
815.8510, 862.3724
816.3331, 886.8036
816.8152, 911.5457
817.2973, 938.2764
817.7794, 966.7041
818.2615, 995.3601
818.7437, 1022.752
819.2258, 1050.507
819.7079, 1080.020
820.1900, 1111.046
820.6721, 1140.646
821.1542, 1168.472
821.6364, 1195.924
822.1185, 1223.583
822.6006, 1251.057
823.0827, 1278.805
823.5648, 1306.641
824.0469, 1334.857
824.5291, 1363.739
825.0112, 1392.913
825.4933, 1423.265
825.9754, 1454.029
826.4575, 1483.156
826.9396, 1508.919
827.4218, 1534.160
827.9039, 1559.218
828.3860, 1584.375
828.8681, 1609.675
829.3502, 1635.322
829.8323, 1661.354
830.3145, 1688.581
830.7966, 1715.271
831.2787, 1737.707
831.7608, 1756.820
832.2429, 1774.804
832.7250, 1791.465
833.2072, 1808.800
833.6893, 1829.610
834.1714, 1851.909
834.6535, 1870.177
835.1356, 1882.386
835.6177, 1893.913
836.0999, 1905.632
836.5820, 1917.423
837.0641, 1929.089
837.5462, 1940.647
838.0283, 1952.412
838.5104, 1965.103
838.9926, 1976.887
839.4747, 1984.748
839.9568, 1990.423
840.4389, 1997.058
840.9210, 2007.114
841.4031, 2016.424
841.8853, 2023.732
842.3674, 2029.853
842.8495, 2035.617
843.3316, 2040.764
843.8137, 2046.791
844.2958, 2054.093
844.7780, 2061.897
845.2601, 2069.072
845.7422, 2075.826
846.2243, 2082.889
846.7064, 2090.708
847.1885, 2098.216
847.6707, 2103.986
848.1528, 2109.510
848.6349, 2116.700
849.1170, 2127.929
849.5991, 2136.580
850.0812, 2141.629
850.5634, 2145.686
851.0455, 2151.766
851.5276, 2159.679
852.0097, 2168.124
852.4918, 2177.205
852.9739, 2185.147
853.4561, 2189.633
853.9382, 2192.469
854.4203, 2195.876
854.9024, 2200.968
855.3845, 2204.065
855.8666, 2203.539
856.3488, 2201.507
856.8309, 2199.457
857.3130, 2197.533
857.7951, 2193.857
858.2772, 2188.449
858.7593, 2181.018
859.2415, 2171.173
859.7236, 2159.194
860.2057, 2145.247
860.6878, 2129.407
861.1699, 2111.917
861.6520, 2092.805
862.1342, 2072.032
862.6163, 2048.931
863.0984, 2023.743
863.5805, 1998.240
864.0626, 1972.770
864.5447, 1946.629
865.0269, 1920.339
865.5090, 1892.926
865.9911, 1860.727
866.4732, 1824.558
866.9553, 1788.668
867.4374, 1755.893
867.9196, 1724.453
868.4017, 1694.754
868.8838, 1666.321
869.3659, 1635.892
869.8480, 1602.522
870.3301, 1568.678
870.8123, 1534.341
871.2944, 1500.024
871.7765, 1466.977
872.2586, 1435.515
872.7407, 1404.248
873.2228, 1373.040
873.7050, 1341.740
874.1871, 1309.935
874.6692, 1278.141
875.1513, 1246.841
875.6334, 1216.494
876.1155, 1186.689
876.5977, 1157.303
877.0798, 1128.279
877.5619, 1099.306
878.0440, 1070.341
878.5261, 1042.659
879.0082, 1016.260
879.4904, 990.6468
879.9725, 964.3945
880.4546, 938.1542
880.9367, 912.9670
881.4188, 889.0957
881.9009, 865.9937
882.3831, 843.9218
882.8652, 822.1067
883.3473, 800.5089
883.8294, 779.0663
884.3115, 756.8881
884.7936, 733.6404
885.2758, 710.7712
885.7579, 689.7303
886.2400, 670.2177
886.7221, 651.8099
887.2042, 634.6342
887.6863, 617.1797
888.1685, 597.0327
888.6506, 577.3040
889.1327, 560.6647
889.6148, 547.6102
890.0969, 533.1251
890.5790, 516.4700
891.0612, 499.8223
891.5433, 484.5825
892.0254, 470.2662
892.5075, 455.1837
892.9896, 439.4287
893.4717, 424.6107
893.9539, 412.5928
894.4360, 400.8460
894.9181, 387.0649
895.4002, 371.5976
895.8823, 358.2538
896.3644, 348.5214
896.8466, 338.2639
897.3287, 326.0015
897.8108, 312.6852
898.2929, 300.0780
898.7750, 288.2767
899.2571, 277.4279
899.7393, 268.0416
900.2214, 259.0142
900.7035, 249.3831
901.1856, 239.5685
901.6677, 230.5823
902.1498, 223.4901
902.6320, 215.7294
903.1141, 206.6365
903.5962, 197.3388
904.0783, 189.7739
904.5604, 183.7000
905.0425, 177.2186
905.5247, 169.9404
906.0068, 162.9543
906.4889, 157.4382
906.9710, 152.7062
907.4531, 148.2108
907.9352, 144.0708
908.4174, 139.0412
908.8995, 132.2369
909.3816, 125.3267
909.8637, 119.4434
910.3458, 114.4684
910.8279, 109.5460
911.3101, 104.6655
911.7922, 100.4865
912.2743, 98.38873
912.7564, 96.61761
913.2385, 92.87067
913.7206, 87.39209
914.2028, 82.56866
914.6849, 80.05054
915.1670, 77.19061
915.6491, 73.01495
916.1312, 67.96063
916.6133, 63.68939
917.0955, 60.17914
917.5776, 57.05219
918.0597, 54.16809
918.5418, 51.49939
919.0239, 49.37262
919.5060, 47.34747
919.9882, 44.67029
920.4703, 40.19836
920.9524, 36.11090
921.4345, 32.85217
921.9166, 30.11157
922.3987, 27.66040
922.8809, 25.48718
923.3630, 23.18396
923.8451, 20.70673
924.3272, 17.83026
924.8093, 13.94940
925.2914, 9.750061
925.7736, 6.275818
926.2557, 3.695984
926.7378, 1.506348
927.2199, 0.1273190
927.7020, 1.345642
928.1841, 3.430420
928.6663, 6.090637
929.1484, 8.565247
929.6305, 10.91852
930.1126, 12.92731
930.5947, 14.33301
931.0768, 15.47858
931.5590, 16.87408
932.0411, 18.44263
932.5232, 19.49573
933.0053, 19.36545
933.4874, 19.34152
933.9695, 19.78104
934.4517, 20.54233
934.9338, 21.55237
935.4159, 22.79129
935.8980, 23.51065
936.3801, 23.22665
936.8622, 22.84268
937.3444, 23.78900
937.8265, 25.12103
938.3086, 25.44766
938.7907, 23.75992
939.2728, 22.24792
939.7549, 21.29004
940.2371, 20.58224
940.7192, 20.01996
941.2013, 19.60513
941.6834, 18.96277
942.1655, 18.06461
942.6476, 17.09158
943.1298, 16.17426
943.6119, 15.24637
944.0940, 14.18307
944.5761, 13.01053
945.0582, 12.06967
945.5403, 11.80817
946.0225, 11.32819
946.5046, 10.22708
946.9867, 8.706451
947.4688, 7.779358
947.9509, 7.372314
948.4330, 6.726501
948.9152, 5.423126
949.3973, 3.867004
949.8794, 2.165680
950.3615, 0.5548710
950.8436, 0.5386660
951.3257, 0.1130680
951.8079, 0.5303340
952.2900, 2.242554
952.7721, 4.399994
953.2542, 5.966064
953.7363, 7.020508
954.2184, 8.150360
954.7006, 9.414459
955.1827, 10.81754
955.6648, 12.66537
956.1469, 14.42017
956.6290, 15.50153
957.1111, 15.74301
957.5933, 16.36899
958.0754, 17.48453
958.5575, 18.86368
959.0396, 20.61902
959.5217, 22.49905
960.0038, 23.32150
960.4860, 23.31583
960.9681, 23.67795
961.4502, 25.40573
961.9323, 27.34354
962.4144, 28.76532
962.8965, 29.92331
963.3787, 31.44254
963.8608, 33.57922
964.3429, 35.44147
964.8250, 36.90512
965.3071, 38.08548
965.7892, 38.93143
966.2714, 39.66415
966.7535, 40.93808
967.2356, 42.97552
967.7177, 44.77069
968.1998, 45.56229
968.6819, 46.07056
969.1641, 46.75034
969.6462, 47.58383
970.1283, 48.93497
970.6104, 50.90933
971.0925, 52.72449
971.5746, 53.77759
972.0568, 54.45343
972.5389, 55.49448
973.0210, 56.76089
973.5031, 57.82294
973.9852, 58.08783
974.4673, 58.62299
974.9495, 59.91333
975.4316, 61.55930
975.9137, 62.86179
976.3958, 63.78027
976.8779, 64.88995
977.3600, 66.35599
977.8422, 67.77121
978.3243, 68.65552
978.8064, 69.25238
979.2885, 69.76953
979.7706, 70.13663
980.2527, 70.98157
980.7349, 72.79611
981.2170, 74.55508
981.6991, 75.62396
982.1812, 76.12692
982.6633, 77.16052
983.1454, 78.66605
983.6276, 79.98766
984.1097, 80.34570
984.5918, 80.71692
985.0739, 82.20013
985.5560, 84.25549
986.0381, 85.34290
986.5203, 84.55005
987.0024, 84.50110
987.4845, 85.78302
987.9666, 87.39938
988.4487, 87.79306
988.9308, 87.36273
989.4130, 87.26627
989.8951, 87.73480
990.3772, 88.18335
990.8593, 88.55240
991.3414, 88.62939
991.8235, 88.09569
992.3057, 86.89072
992.7878, 86.11038
993.2699, 85.79456
993.7520, 85.54178
994.2341, 85.27188
994.7162, 84.89319
995.1984, 84.05600
995.6805, 82.87791
996.1626, 81.81595
996.6447, 81.29922
997.1268, 80.80923
997.6089, 80.20337
998.0911, 79.51785
998.5732, 78.89052
999.0553, 78.30911
999.5374, 77.21213
1000.020, 75.48886
1000.502, 73.88101
1000.984, 73.26419
1001.466, 72.97253
1001.948, 72.36151
1002.430, 71.33533
1002.912, 70.36993
1003.394, 69.49411
1003.876, 68.57593
1004.359, 67.50964
1004.841, 66.48175
1005.323, 66.15558
1005.805, 66.29688
1006.287, 66.09302
1006.769, 65.06958
1007.251, 63.87381
1007.733, 62.65089
1008.216, 61.55705
1008.698, 60.82649
1009.180, 60.51825
1009.662, 59.85820
1010.144, 58.80669
1010.626, 57.86630
1011.108, 57.59891
1011.590, 57.63806
1012.072, 57.50110
1012.555, 57.15820
1013.037, 56.78456
1013.519, 56.70596
1014.001, 56.27478
1014.483, 55.00777
1014.965, 53.26852
1015.447, 52.56549
1015.929, 52.80763
1016.411, 52.86101
1016.894, 52.26013
1017.376, 51.60687
1017.858, 51.43170
1018.340, 51.43234
1018.822, 51.28204
1019.304, 50.91626
1019.786, 50.62592
1020.268, 50.45607
1020.751, 50.18564
1021.233, 49.54292
1021.715, 48.72092
1022.197, 48.24173
1022.679, 48.04425
1023.161, 47.77945
1023.643, 47.17882
1024.125, 46.56578
1024.607, 45.91260
1025.090, 45.42070
1025.572, 45.68419
1026.054, 46.76985
1026.536, 47.12489
1027.018, 46.33691
1027.500, 45.37155
1027.982, 45.36130
1028.464, 45.71776
1028.947, 45.72546
1029.429, 45.18509
1029.911, 44.67331
1030.393, 44.19905
1030.875, 43.86969
1031.357, 43.88852
1031.839, 44.02881
1032.321, 42.94691
1032.803, 41.16890
1033.286, 40.83379
1033.768, 45.11322
1034.250, 48.65240
1034.732, 48.82462
1035.214, 46.94891
1035.696, 44.76707
1036.178, 41.98846
1036.660, 40.52737
1037.143, 40.63298
1037.625, 41.13118
1038.107, 41.00851
1038.589, 40.61526
1039.071, 40.42804
1039.553, 40.44138
1040.035, 40.14919
1040.517, 39.18913
1041.000, 38.31113
1041.482, 37.69890
1041.964, 37.32408
1042.446, 37.20087
1042.928, 37.30257
1043.410, 37.40498
1043.892, 37.24455
1044.374, 37.64578
1044.856, 40.72166
1045.339, 43.42656
1045.821, 42.62320
1046.303, 37.56540
1046.785, 34.66150
1047.267, 34.10120
1047.749, 34.09927
1048.231, 33.64224
1048.713, 32.97163
1049.195, 32.38882
1049.677, 31.83932
1050.160, 31.18515
1050.642, 30.11246
1051.124, 29.36551
1051.606, 29.15308
1052.088, 29.10353
1052.570, 28.62364
1053.052, 27.85986
1053.534, 27.44588
1054.017, 27.46590
1054.499, 27.59467
1054.981, 27.87018
1055.463, 27.96011
1055.945, 27.61594
1056.427, 26.89944
1056.909, 26.00000
1057.391, 24.87827
1057.874, 24.05766
1058.356, 23.80814
1058.838, 23.76212
1059.320, 23.44319
1059.802, 23.04601
1060.284, 22.87932
1060.766, 23.28600
1061.248, 23.21593
1061.730, 22.44540
1062.213, 21.58304
1062.695, 20.99605
1063.177, 20.66956
1063.659, 20.72333
1064.141, 21.03389
1064.623, 21.02519
1065.105, 20.06679
1065.587, 19.11862
1066.070, 18.49667
1066.552, 18.11263
1067.034, 17.92606
1067.516, 17.94969
1067.998, 17.86122
1068.480, 17.60611
1068.962, 17.38481
1069.444, 17.53329
1069.927, 17.70172
1070.409, 17.56436
1070.891, 17.09375
1071.373, 16.51190
1071.855, 15.69116
1072.337, 15.15269
1072.819, 15.16876
1073.301, 15.38188
1073.783, 15.09770
1074.266, 14.52052
1074.748, 14.09756
1075.230, 14.04877
1075.712, 13.86879
1076.194, 13.23813
1076.676, 12.64673
1077.158, 12.41583
1077.640, 12.50423
1078.122, 12.47833
1078.604, 12.35414
1079.087, 12.25474
1079.569, 12.27913
1080.051, 12.28003
1080.533, 12.16818
1081.015, 11.99524
1081.497, 11.85361
1081.979, 11.76886
1082.461, 11.49916
1082.944, 10.98289
1083.426, 10.61545
1083.908, 11.14011
1084.390, 11.78564
1084.872, 11.45090
1085.354, 10.18227
1085.836, 9.340469
1086.318, 9.398514
1086.801, 9.352509
1087.283, 8.875504
1087.765, 8.252228
1088.247, 8.168625
1088.729, 8.382721
1089.211, 8.141342
1089.693, 7.122833
1090.175, 6.476898
1090.657, 7.301453
1091.140, 8.009125
1091.622, 7.584641
1092.104, 6.239334
1092.586, 5.996780
1093.068, 6.746887
1093.550, 7.096420
1094.032, 5.985062
1094.514, 4.872574
1094.997, 4.995987
1095.479, 5.687378
1095.961, 6.077576
1096.443, 6.003937
1096.925, 5.864746
1097.407, 5.661758
1097.889, 5.499680
1098.371, 5.579437
1098.854, 5.680527
1099.336, 5.330353
1099.818, 4.705063
1100.300, 4.560364
1100.782, 5.736786
1101.264, 6.170151
1101.746, 5.390274
1102.228, 4.250061
1102.710, 3.878967
1103.193, 4.029175
1103.675, 4.119568
1104.157, 4.084671
1104.639, 4.036407
1105.121, 4.187347
1105.603, 4.135406
1106.085, 3.582855
1106.567, 2.765976
1107.049, 2.466965
1107.531, 2.654114
1108.014, 3.015396
1108.496, 3.521973
1108.978, 3.839096
1109.460, 3.510193
1109.942, 3.081558
1110.424, 3.059509
1110.906, 3.461197
1111.388, 3.585129
1111.871, 3.425247
1112.353, 3.266541
1112.835, 3.196228
1113.317, 3.193008
1113.799, 3.321075
1114.281, 3.504150
1114.763, 3.610779
1115.245, 3.677383
1115.728, 3.528778
1116.210, 3.121124
1116.692, 2.672272
1117.174, 2.295349
1117.656, 2.037338
1118.138, 2.073669
1118.620, 2.331314
1119.102, 2.492462
1119.584, 2.199951
1120.067, 2.186127
1120.549, 2.653595
1121.031, 3.256775
1121.513, 3.676254
1121.995, 3.822159
1122.477, 3.089401
1122.959, 1.432495
1123.441, 0.3298190
1123.924, 1.432541
1124.406, 2.308334
1124.888, 1.678833
1125.370, 0.1973420
1125.852, 0.2872620
1126.334, 0.1558840
1126.816, 0.5989990
1127.298, 0.8620610
1127.781, 0.9030910
1128.263, 0.3826450
1128.745, 0.1419220
1129.227, 0.1219180
1129.709, 0.4113310
1130.191, 0.6741330
1130.673, 0.6588750
1131.155, 0.5384060
1131.637, 0.3112490
1132.120, 0.1285100
1132.602, 0.2098540
1133.084, 0.4162290
1133.566, 0.5500340
1134.048, 0.5633390
1134.530, 0.5978240
1135.012, 0.7000580
1135.494, 0.6292720
1135.976, 2.2293000E-02
1136.458, 0.7833560
1136.941, 0.7165220
1137.423, 0.1505740
1137.905, 0.1107330
1138.387, 0.5036930
1138.869, 0.9047090
1139.351, 0.9834590
1139.833, 0.9573670
1140.315, 1.066360
1140.798, 1.225082
1141.280, 1.195419
1141.762, 0.9962770
1142.244, 0.8219300
1142.726, 0.6911160
1143.208, 0.7209010
1143.690, 1.078018
1144.172, 1.417099
1144.655, 1.029953
1145.137, 0.1582790
1145.619, 0.1841430
1146.101, 0.1298070
1146.583, 0.4854890
1147.065, 0.6179200
1147.547, 0.6272430
1148.029, 0.5077510
1148.511, 0.3237150
1148.994, 0.2745210
1149.476, 0.3572080
1149.958, 0.5430300
1150.440, 0.8563540
1150.922, 1.089493
1151.404, 0.9859620
1151.886, 0.8548580
1152.368, 1.028259
1152.851, 0.7919920
1153.333, 1.262405
1153.815, 0.5121000
1154.297, 6.8314001E-02
1154.779, 0.1856840
1155.261, 5.7082999E-02
1155.743, 0.3002620
1156.225, 0.6912380
1156.708, 0.8717650
1157.190, 0.8189240
1157.672, 0.7090450
1158.154, 0.5215000
1158.636, 0.4205780
1159.118, 0.5883640
1159.600, 0.7971950
1160.082, 0.7585600
1160.564, 0.5803530
1161.047, 0.4523010
1161.529, 0.3767550
1162.011, 0.4306180
1162.493, 0.6653440
1162.975, 0.8065640
1163.457, 0.4543150
1163.939, 1.4557000E-02
1164.421, 0.2102810
1164.903, 0.8065190
1165.385, 1.062973
1165.868, 0.4514920
1166.350, 0.2184450
1166.832, 0.5621190
1167.314, 1.021637
1167.796, 1.056870
1168.278, 0.8967900
1168.760, 1.075485
1169.242, 1.514526
1169.725, 1.534561
1170.207, 0.5039520
1170.689, 0.3635250
1171.171, 0.9084470
1171.653, 1.184601
1172.135, 1.149902
1172.617, 0.9320530
1173.099, 0.8154140
1173.582, 0.8306120
1174.064, 0.8512270
1174.546, 0.6888430
1175.028, 0.7593230
1175.510, 1.347183
1175.992, 2.002823
1176.474, 1.460785
1176.956, 0.2576750
1177.438, 0.1911010
1177.921, 1.781693
1178.403, 2.817490
1178.885, 1.826294
1179.367, 0.6999510
1179.849, 7.3119998E-02
1180.331, 7.8521997E-02
1180.813, 0.4057310
1181.295, 1.340271
1181.778, 2.056290
1182.260, 2.406708
1182.742, 2.363174
1183.224, 1.347488
1183.706, 0.5150150
1184.188, 0.5972600
1184.670, 1.396042
1185.152, 1.854233
1185.635, 2.027771
1186.117, 2.255081
1186.599, 2.819473
1187.081, 3.128998
1187.563, 2.664322
1188.045, 2.012436
1188.527, 1.549454
1189.009, 1.287323
1189.491, 1.426392
1189.974, 1.913467
1190.456, 2.357315
1190.938, 2.529480
1191.420, 2.658447
1191.902, 2.942215
1192.384, 3.170166
1192.866, 3.015503
1193.348, 2.457855
1193.830, 2.564453
1194.313, 3.305603
1194.795, 4.398682
1195.277, 5.908356
1195.759, 7.465530
1196.241, 9.692429
1196.723, 11.28870
1197.205, 10.13135
1197.687, 6.111053
1198.169, 3.933807
1198.652, 3.764450
1199.134, 3.925858
1199.616, 3.264221
1200.098, 2.632645
1200.580, 2.586395
1201.062, 2.887939
1201.544, 3.183655
1202.026, 3.477570
1202.509, 3.558090
1202.991, 3.409317
1203.473, 3.320480
1203.955, 3.594315
1204.437, 3.900208
1204.919, 4.022797
1205.401, 4.024796
1205.883, 4.023117
1206.365, 4.013519
1206.848, 4.158630
1207.330, 4.502228
1207.812, 4.761810
1208.294, 4.554962
1208.776, 4.271332
1209.258, 4.194138
1209.740, 4.253769
1210.222, 4.182846
1210.705, 3.992569
1211.187, 4.192490
1211.669, 4.987091
1212.151, 5.613571
1212.633, 5.125549
1213.115, 4.522247
1213.597, 4.646622
1214.079, 5.269333
1214.562, 5.607132
1215.044, 5.671295
1215.526, 5.484787
1216.008, 4.988281
1216.490, 4.602524
1216.972, 4.611099
1217.454, 4.892410
1217.936, 5.596405
1218.418, 6.517014
1218.901, 6.433884
1219.383, 5.393829
1219.865, 4.552490
1220.347, 4.218964
1220.829, 4.198502
1221.311, 4.778122
1221.793, 5.254211
1222.275, 4.862915
1222.757, 5.411453
1223.240, 4.031845
1223.722, 5.444199
1224.204, 6.164261
1224.686, 5.308701
1225.168, 4.254959
1225.650, 3.806076
1226.132, 3.715057
1226.614, 3.787582
1227.096, 3.986816
1227.579, 4.163818
1228.061, 4.348648
1228.543, 4.363892
1229.025, 4.037140
1229.507, 3.686874
1229.989, 3.405579
1230.471, 3.264343
1230.953, 3.309982
1231.436, 3.531357
1231.918, 4.014633
1232.400, 4.666824
1232.882, 4.833847
1233.364, 3.915054
1233.846, 3.086090
1234.328, 2.853012
1234.810, 2.993332
1235.292, 3.521545
1235.775, 4.376862
1236.257, 4.729324
1236.739, 4.641266
1237.221, 4.279114
1237.703, 3.259933
1238.185, 2.700546
1238.667, 3.606522
1239.149, 4.588470
1239.632, 4.480850
1240.114, 3.550827
1240.596, 3.555161
1241.078, 4.239624
1241.560, 4.537094
1242.042, 3.393250
1242.524, 2.733337
1243.006, 3.317856
1243.489, 4.080750
1243.971, 4.097626
1244.453, 3.599182
1244.935, 3.608200
1245.417, 3.980789
1245.899, 4.203903
1246.381, 3.936874
1246.863, 3.693375
1247.345, 3.578812
1247.828, 3.466751
1248.310, 3.258102
1248.792, 2.974075
1249.274, 2.322052
1249.756, 1.610352
1250.238, 1.858841
1250.720, 5.133575
1251.202, 6.621750
1251.684, 5.487793
1252.167, 3.728531
1252.649, 2.950485
1253.131, 2.814911
1253.613, 2.842575
1254.095, 2.927567
1254.577, 2.759781
1255.059, 1.272659
1255.541, 1.776611
1256.023, 5.160538
1256.506, 8.053406
1256.988, 6.640625
1257.470, 3.522766
1257.952, 2.255081
1258.434, 2.416565
1258.916, 2.553406
1259.398, 2.531021
1259.880, 2.248795
1260.363, 1.630310
1260.845, 1.195938
1261.327, 1.745178
1261.809, 2.398270
1262.291, 2.067749
1262.773, 1.129868
1263.255, 0.6800080
1263.737, 0.9132230
1264.219, 0.7670140
1264.702, 0.1284940
1265.184, 0.2319030
1265.666, 0.5916290
1266.148, 1.619980
1266.630, 2.197357
1267.112, 2.379822
1267.594, 2.356567
1268.076, 2.122208
1268.559, 1.700211
1269.041, 1.099396
1269.523, 0.7326970
1270.005, 1.172989
1270.487, 1.614685
1270.969, 1.499756
1271.451, 1.148041
1271.933, 0.9859770
1272.416, 0.9956970
1272.898, 0.8804930
1273.380, 0.6469570
1273.862, 0.6077120
1274.344, 1.159882
1274.826, 1.672287
1275.308, 1.957855
1275.790, 2.070007
1276.272, 2.035004
1276.755, 1.885193
1277.237, 1.683975
1277.719, 1.463913
1278.201, 1.382339
1278.683, 1.835388
1279.165, 1.943649
1279.647, 1.459488
1280.129, 0.7754210
1280.611, 0.1869960
1281.094, 0.2318730
1281.576, 0.2708130
1282.058, 1.8600000E-02
1282.540, 0.3603060
1283.022, 0.7335210
1283.504, 1.015549
1283.986, 1.173492
1284.468, 1.370926
1284.950, 1.554169
1285.433, 1.674438
1285.915, 1.632797
1286.397, 1.466248
1286.879, 1.315979
1287.361, 1.180420
1287.843, 1.127441
1288.325, 1.166901
1288.807, 1.268890
1289.290, 1.447922
1289.772, 1.634689
1290.254, 1.767792
1290.736, 1.860764
1291.218, 2.004196
1291.700, 1.948868
1292.182, 1.276901
1292.664, 0.3447880
1293.146, 0.1455990
1293.629, 0.8987880
1294.111, 1.959778
1294.593, 2.056091
1295.075, 1.725754
1295.557, 1.623993
1296.039, 1.713608
1296.521, 1.593048
1297.003, 1.271881
1297.486, 0.9380190
1297.968, 6.0913000E-02
1298.450, 0.1810150
1298.932, 1.491425
1299.414, 2.892441
1299.896, 3.114868
1300.378, 2.277878
1300.860, 1.482101
1301.343, 0.6340030
1301.825, 0.0000000E+00
##END=



