##NAMES=Dufrenoysite
##RRUFFID=R070579
##IDEAL CHEMISTRY=Pb_2_As_2_S_5_
##LOCALITY=Lengenbach Quarry, Imfeld, Binnental, Valais, Switzerland
##OWNER=RRUFF
##SOURCE=James Shigley
##DESCRIPTION=Lead gray metallic prismatic crystals associated with pyrite and dolomite
##STATUS=The identification of this mineral has been confirmed by X-ray diffraction and chemical analysis
##URL=rruff.info/R070579
##MEASURED CHEMISTRY=(Pb_1.71_Tl_0.08_Sb_0.04_Ag_0.03_)_Î£1.86_As_2.05_S_5.00
96.72993, 36378.98
97.21204, 37935.43
97.69416, 39470.39
98.17628, 40980.50
98.65839, 42489.24
99.14051, 43882.64
99.62263, 45120.39
100.1047, 46266.92
100.5869, 47383.45
101.0690, 48251.93
101.5511, 47992.80
102.0332, 47656.64
102.5153, 47226.48
102.9974, 46811.69
103.4796, 46452.77
103.9617, 46136.70
104.4438, 45832.46
104.9259, 45539.33
105.4080, 45235.27
105.8901, 44889.42
106.3723, 44468.47
106.8544, 44032.32
107.3365, 43636.04
107.8186, 43273.13
108.3007, 42954.81
108.7829, 42696.92
109.2650, 42474.40
109.7471, 42262.06
110.2292, 42042.89
110.7113, 41819.43
111.1934, 41608.49
111.6756, 41388.40
112.1577, 41205.29
112.6398, 41085.42
113.1219, 41014.82
113.6040, 40958.38
114.0861, 40883.59
114.5683, 40783.86
115.0504, 40683.61
115.5325, 40569.10
116.0146, 40460.75
116.4967, 40372.50
116.9788, 40305.44
117.4610, 40249.04
117.9431, 40184.82
118.4252, 40083.12
118.9073, 40013.86
119.3894, 39996.80
119.8715, 40004.85
120.3537, 40012.02
120.8358, 40008.13
121.3179, 39990.02
121.8000, 39941.16
122.2821, 39825.93
122.7642, 39725.22
123.2464, 39675.61
123.7285, 39666.24
124.2106, 39656.05
124.6927, 39614.18
125.1748, 39550.52
125.6569, 39514.03
126.1391, 39538.26
126.6212, 39571.19
127.1033, 39558.50
127.5854, 39491.82
128.0675, 39413.58
128.5496, 39341.80
129.0318, 39280.34
129.5139, 39246.26
129.9960, 39271.09
130.4781, 39332.15
130.9602, 39348.11
131.4423, 39273.14
131.9245, 39205.00
132.4066, 39211.70
132.8887, 39280.23
133.3708, 39352.86
133.8529, 39371.59
134.3350, 39325.28
134.8172, 39309.81
135.2993, 39349.36
135.7814, 39410.78
136.2635, 39486.16
136.7456, 39571.77
137.2277, 39660.64
137.7099, 39747.54
138.1920, 39862.56
138.6741, 39912.84
139.1562, 39865.54
139.6383, 39777.04
140.1205, 39686.84
140.6026, 39612.70
141.0847, 39557.46
141.5668, 39531.70
142.0489, 39579.61
142.5310, 39610.55
143.0132, 39616.96
143.4953, 39599.51
143.9774, 39561.29
144.4595, 39504.36
144.9416, 39427.67
145.4237, 39319.63
145.9059, 39170.68
146.3880, 39007.80
146.8701, 38823.92
147.3522, 38627.58
147.8343, 38459.37
148.3164, 38367.98
148.7986, 38351.85
149.2807, 38268.34
149.7628, 38080.47
150.2449, 37841.41
150.7270, 37587.93
151.2091, 37317.46
151.6913, 37067.86
152.1734, 36904.98
152.6555, 36807.30
153.1376, 36682.61
153.6197, 36479.54
154.1018, 36228.38
154.5840, 36003.82
155.0661, 35835.54
155.5482, 35668.69
156.0303, 35440.86
156.5124, 35158.20
156.9945, 34897.08
157.4767, 34724.42
157.9588, 34638.31
158.4409, 34539.50
158.9230, 34398.95
159.4051, 34248.59
159.8872, 34105.54
160.3694, 33972.97
160.8515, 33847.91
161.3336, 33727.66
161.8157, 33614.05
162.2978, 33500.32
162.7799, 33389.52
163.2621, 33275.64
163.7442, 33155.20
164.2263, 33026.73
164.7084, 32890.00
165.1905, 32740.12
165.6726, 32557.08
166.1548, 32394.53
166.6369, 32268.07
167.1190, 32161.02
167.6011, 32061.20
168.0832, 31963.10
168.5653, 31861.38
169.0475, 31726.74
169.5296, 31518.55
170.0117, 31318.45
170.4938, 31143.00
170.9759, 30984.22
171.4580, 30825.79
171.9402, 30654.56
172.4223, 30471.48
172.9044, 30311.70
173.3865, 30221.59
173.8686, 30105.97
174.3507, 29906.51
174.8329, 29638.67
175.3150, 29368.74
175.7971, 29148.61
176.2792, 28984.30
176.7613, 28825.19
177.2434, 28683.49
177.7256, 28537.19
178.2077, 28362.38
178.6898, 28158.26
179.1719, 27953.21
179.6540, 27772.73
180.1361, 27617.42
180.6183, 27479.87
181.1004, 27374.74
181.5825, 27281.31
182.0646, 27174.09
182.5467, 27048.54
183.0289, 26912.99
183.5110, 26770.83
183.9931, 26622.73
184.4752, 26486.51
184.9573, 26365.12
185.4394, 26259.77
185.9216, 26174.10
186.4037, 26113.33
186.8858, 26067.69
187.3679, 26023.41
187.8500, 25980.41
188.3321, 25948.76
188.8143, 25937.01
189.2964, 25943.64
189.7785, 25957.20
190.2606, 25985.58
190.7427, 26010.37
191.2248, 26010.89
191.7070, 25985.44
192.1891, 25964.24
192.6712, 25980.67
193.1533, 26039.20
193.6354, 26091.43
194.1175, 26111.93
194.5997, 26131.89
195.0818, 26168.79
195.5639, 26226.43
196.0460, 26299.91
196.5281, 26383.57
197.0102, 26478.58
197.4924, 26582.14
197.9745, 26681.60
198.4566, 26794.55
198.9387, 26940.01
199.4208, 27125.60
199.9029, 27330.63
200.3851, 27513.90
200.8672, 27650.05
201.3493, 27812.05
201.8314, 28018.00
202.3135, 28246.29
202.7956, 28480.17
203.2778, 28711.84
203.7599, 28940.00
204.2420, 29162.30
204.7241, 29366.57
205.2062, 29580.04
205.6883, 29798.53
206.1705, 30028.40
206.6526, 30279.67
207.1347, 30557.31
207.6168, 30856.70
208.0989, 31159.73
208.5810, 31498.34
209.0632, 31804.28
209.5453, 32043.65
210.0274, 32246.14
210.5095, 32457.72
210.9916, 32706.58
211.4737, 32989.86
211.9559, 33280.41
212.4380, 33600.45
212.9201, 33905.20
213.4022, 34190.23
213.8843, 34451.54
214.3664, 34674.94
214.8486, 34845.81
215.3307, 34967.97
215.8128, 35138.30
216.2949, 35389.51
216.7770, 35644.55
217.2591, 35885.57
217.7413, 36106.82
218.2234, 36299.80
218.7055, 36459.15
219.1876, 36582.14
219.6697, 36676.93
220.1518, 36726.14
220.6340, 36765.84
221.1161, 36823.04
221.5982, 36893.84
222.0803, 36948.44
222.5624, 36962.54
223.0446, 36934.16
223.5267, 36902.41
224.0088, 36854.54
224.4909, 36812.80
224.9730, 36805.79
225.4551, 36832.23
225.9373, 36845.80
226.4194, 36804.80
226.9015, 36712.06
227.3836, 36625.91
227.8657, 36557.82
228.3478, 36492.63
228.8300, 36418.98
229.3121, 36336.08
229.7942, 36239.90
230.2763, 36113.27
230.7584, 35966.21
231.2405, 35849.95
231.7227, 35797.51
232.2048, 35767.54
232.6869, 35703.25
233.1690, 35594.06
233.6511, 35494.38
234.1332, 35464.72
234.6154, 35483.52
235.0975, 35490.84
235.5796, 35456.08
236.0617, 35406.58
236.5438, 35386.59
237.0259, 35404.72
237.5081, 35429.44
237.9902, 35431.76
238.4723, 35421.04
238.9544, 35419.69
239.4365, 35437.06
239.9186, 35468.20
240.4008, 35499.36
240.8829, 35521.29
241.3650, 35566.98
241.8471, 35689.89
242.3292, 35856.01
242.8113, 35986.55
243.2935, 36017.73
243.7756, 35993.42
244.2577, 36022.22
244.7398, 36126.39
245.2219, 36241.49
245.7040, 36326.06
246.1862, 36390.30
246.6683, 36454.04
247.1504, 36519.50
247.6325, 36591.32
248.1146, 36689.58
248.5967, 36834.33
249.0789, 36966.64
249.5610, 37039.60
250.0431, 37076.28
250.5252, 37125.14
251.0073, 37216.45
251.4894, 37339.24
251.9716, 37464.88
252.4537, 37625.54
252.9358, 37730.13
253.4179, 37706.70
253.9000, 37603.63
254.3821, 37513.46
254.8643, 37493.87
255.3464, 37527.41
255.8285, 37546.58
256.3106, 37539.61
256.7927, 37536.55
257.2748, 37579.98
257.7570, 37635.41
258.2391, 37635.85
258.7212, 37520.26
259.2033, 37321.60
259.6854, 37176.69
260.1675, 37131.10
260.6497, 37068.03
261.1318, 36942.53
261.6139, 36769.74
262.0960, 36571.73
262.5781, 36348.32
263.0602, 36111.89
263.5424, 35924.77
264.0245, 35818.05
264.5066, 35714.12
264.9887, 35599.03
265.4708, 35464.82
265.9529, 35295.62
266.4351, 35067.82
266.9172, 34804.96
267.3993, 34600.24
267.8814, 34504.25
268.3635, 34387.45
268.8456, 34180.47
269.3278, 33934.86
269.8099, 33725.37
270.2920, 33596.96
270.7741, 33526.40
271.2562, 33439.32
271.7383, 33330.26
272.2205, 33211.55
272.7026, 33059.66
273.1847, 32909.33
273.6668, 32809.43
274.1489, 32790.53
274.6310, 32827.55
275.1132, 32849.24
275.5953, 32843.33
276.0774, 32843.04
276.5595, 32848.63
277.0416, 32866.34
277.5237, 32906.21
278.0059, 32975.27
278.4880, 33061.80
278.9701, 33131.46
279.4522, 33146.86
279.9343, 33221.07
280.4164, 33403.86
280.8986, 33638.04
281.3807, 33870.64
281.8628, 34080.04
282.3449, 34275.96
282.8270, 34474.34
283.3091, 34664.67
283.7913, 34882.27
284.2734, 35149.47
284.7555, 35436.27
285.2376, 35718.59
285.7198, 35987.70
286.2019, 36252.59
286.6840, 36532.67
287.1661, 36849.50
287.6482, 37129.45
288.1303, 37350.66
288.6125, 37539.80
289.0946, 37713.52
289.5767, 37876.91
290.0588, 38031.29
290.5409, 38184.10
291.0230, 38343.36
291.5052, 38472.69
291.9873, 38577.50
292.4694, 38645.45
292.9515, 38660.75
293.4336, 38621.76
293.9157, 38547.70
294.3979, 38459.05
294.8800, 38355.51
295.3621, 38239.86
295.8442, 38130.09
296.3263, 37994.72
296.8084, 37810.71
297.2906, 37577.88
297.7727, 37316.67
298.2548, 37054.11
298.7369, 36798.20
299.2190, 36484.16
299.7011, 36048.93
300.1833, 35600.30
300.6654, 35191.03
301.1475, 34819.35
301.6296, 34454.63
302.1117, 34071.81
302.5938, 33671.61
303.0760, 33252.46
303.5581, 32760.08
304.0402, 32306.12
304.5223, 31955.08
305.0044, 31688.95
305.4865, 31440.35
305.9687, 31152.55
306.4508, 30832.65
306.9329, 30558.74
307.4150, 30338.88
307.8971, 30160.76
308.3792, 30021.85
308.8614, 29913.69
309.3435, 29819.50
309.8256, 29724.59
310.3077, 29636.61
310.7898, 29587.40
311.2719, 29592.62
311.7541, 29609.96
312.2362, 29621.26
312.7183, 29630.07
313.2004, 29642.08
313.6825, 29661.38
314.1646, 29684.14
314.6468, 29696.63
315.1289, 29686.14
315.6110, 29701.35
316.0931, 29782.70
316.5752, 29893.88
317.0573, 29997.10
317.5395, 30080.72
318.0216, 30150.55
318.5037, 30210.50
318.9858, 30257.83
319.4679, 30311.31
319.9500, 30385.86
320.4322, 30467.09
320.9143, 30541.87
321.3964, 30606.94
321.8785, 30666.83
322.3606, 30737.42
322.8427, 30818.68
323.3249, 30857.20
323.8070, 30824.25
324.2891, 30747.00
324.7712, 30654.33
325.2533, 30546.45
325.7354, 30430.33
326.2176, 30311.59
326.6997, 30188.82
327.1818, 30055.05
327.6639, 29899.75
328.1460, 29744.00
328.6281, 29608.81
329.1103, 29493.95
329.5924, 29384.40
330.0745, 29277.66
330.5566, 29170.38
331.0387, 29054.62
331.5208, 28930.77
332.0030, 28795.62
332.4851, 28634.36
332.9672, 28453.00
333.4493, 28289.45
333.9314, 28171.67
334.4135, 28071.95
334.8957, 27951.16
335.3778, 27805.13
335.8599, 27653.46
336.3420, 27515.87
336.8241, 27387.84
337.3062, 27249.29
337.7884, 27108.32
338.2705, 26947.93
338.7526, 26738.09
339.2347, 26483.96
339.7168, 26243.79
340.1989, 26059.41
340.6811, 25920.76
341.1632, 25767.84
341.6453, 25583.65
342.1274, 25402.91
342.6095, 25232.96
343.0916, 25078.55
343.5738, 24951.32
344.0559, 24852.52
344.5380, 24788.69
345.0201, 24787.20
345.5022, 24860.30
345.9843, 24957.30
346.4665, 25057.19
346.9486, 25174.67
347.4307, 25330.52
347.9128, 25530.60
348.3949, 25775.80
348.8770, 26067.28
349.3592, 26414.36
349.8413, 26796.27
350.3234, 27223.47
350.8055, 27677.05
351.2876, 28128.76
351.7697, 28576.01
352.2519, 29065.74
352.7340, 29657.09
353.2161, 30385.36
353.6982, 31087.27
354.1803, 31736.78
354.6624, 32385.70
355.1446, 33065.53
355.6267, 33772.06
356.1088, 34478.95
356.5909, 35164.79
357.0730, 35829.32
357.5551, 36486.25
358.0373, 37101.95
358.5194, 37747.71
359.0015, 38471.50
359.4836, 39236.64
359.9657, 39972.39
360.4478, 40645.95
360.9300, 41260.79
361.4121, 41850.53
361.8942, 42401.81
362.3763, 42937.55
362.8584, 43490.26
363.3405, 44020.90
363.8227, 44504.11
364.3048, 44929.66
364.7869, 45275.75
365.2690, 45505.34
365.7511, 45618.43
366.2333, 45608.25
366.7154, 45441.39
367.1975, 45186.24
367.6796, 44875.87
368.1617, 44516.95
368.6439, 44109.80
369.1260, 43655.49
369.6081, 43156.76
370.0902, 42597.61
370.5723, 41928.77
371.0544, 41245.11
371.5366, 40592.81
372.0187, 39968.37
372.5008, 39343.32
372.9829, 38679.60
373.4650, 37998.23
373.9471, 37408.76
374.4293, 36978.91
374.9114, 36497.82
375.3935, 35825.38
375.8756, 35034.69
376.3577, 34238.24
376.8398, 33490.60
377.3220, 32734.45
377.8041, 31906.63
378.2862, 31010.10
378.7683, 30021.35
379.2504, 28900.27
379.7325, 27694.48
380.2147, 26480.56
380.6968, 25261.44
381.1789, 24037.90
381.6610, 22792.01
382.1431, 21535.93
382.6252, 20322.31
383.1074, 19154.25
383.5895, 18047.39
384.0716, 17009.80
384.5537, 16040.59
385.0358, 15132.03
385.5179, 14289.43
386.0001, 13508.31
386.4822, 12781.45
386.9643, 12106.74
387.4464, 11482.61
387.9285, 10908.90
388.4106, 10389.61
388.8928, 9910.899
389.3749, 9472.408
389.8570, 9071.341
390.3391, 8710.729
390.8212, 8386.142
391.3033, 8087.799
391.7855, 7808.958
392.2676, 7549.234
392.7497, 7315.125
393.2318, 7111.345
393.7139, 6924.883
394.1960, 6762.026
394.6782, 6611.231
395.1603, 6459.300
395.6424, 6300.334
396.1245, 6141.344
396.6066, 5993.563
397.0887, 5857.907
397.5709, 5734.910
398.0530, 5629.873
398.5351, 5531.487
399.0172, 5432.132
399.4993, 5331.298
399.9814, 5232.433
400.4636, 5137.426
400.9457, 5045.682
401.4278, 4967.889
401.9099, 4921.413
402.3920, 4871.748
402.8741, 4802.319
403.3563, 4721.506
403.8384, 4645.847
404.3205, 4585.086
404.8026, 4535.494
405.2847, 4488.418
405.7668, 4446.797
406.2490, 4399.956
406.7311, 4335.201
407.2132, 4267.668
407.6953, 4213.911
408.1774, 4178.762
408.6595, 4150.333
409.1417, 4116.513
409.6238, 4077.762
410.1059, 4041.669
410.5880, 4013.510
411.0701, 3984.020
411.5522, 3940.436
412.0344, 3883.202
412.5165, 3832.798
412.9986, 3800.418
413.4807, 3779.586
413.9628, 3762.323
414.4449, 3748.498
414.9271, 3731.079
415.4092, 3702.044
415.8913, 3662.979
416.3734, 3629.831
416.8555, 3608.436
417.3376, 3588.763
417.8198, 3563.194
418.3019, 3533.958
418.7840, 3508.427
419.2661, 3490.604
419.7482, 3478.436
420.2303, 3466.048
420.7125, 3460.552
421.1946, 3444.944
421.6767, 3406.601
422.1588, 3362.475
422.6409, 3331.112
423.1230, 3316.720
423.6052, 3310.733
424.0873, 3303.107
424.5694, 3295.164
425.0515, 3280.386
425.5336, 3250.744
426.0157, 3222.870
426.4979, 3205.486
426.9800, 3196.298
427.4621, 3187.820
427.9442, 3174.887
428.4263, 3158.407
428.9084, 3142.823
429.3906, 3128.946
429.8727, 3114.450
430.3548, 3098.235
430.8369, 3081.350
431.3190, 3063.787
431.8011, 3045.146
432.2833, 3029.644
432.7654, 3025.637
433.2475, 3034.036
433.7296, 3036.020
434.2117, 3027.264
434.6938, 3011.362
435.1760, 2988.381
435.6581, 2959.614
436.1402, 2935.847
436.6223, 2928.007
437.1044, 2927.400
437.5865, 2915.461
438.0687, 2889.207
438.5508, 2864.461
439.0329, 2854.590
439.5150, 2855.358
439.9971, 2849.515
440.4792, 2829.571
440.9614, 2809.364
441.4435, 2797.266
441.9256, 2790.931
442.4077, 2784.363
442.8898, 2775.066
443.3719, 2764.397
443.8541, 2754.966
444.3362, 2747.351
444.8183, 2739.716
445.3004, 2734.909
445.7825, 2727.998
446.2646, 2711.025
446.7468, 2685.507
447.2289, 2663.736
447.7110, 2658.205
448.1931, 2669.748
448.6753, 2675.772
449.1574, 2676.084
449.6395, 2670.749
450.1216, 2654.563
450.6037, 2633.980
451.0858, 2619.237
451.5680, 2615.546
452.0501, 2616.248
452.5322, 2606.229
453.0143, 2580.027
453.4964, 2561.115
453.9785, 2562.483
454.4607, 2566.559
454.9428, 2563.245
455.4249, 2551.714
455.9070, 2536.103
456.3891, 2517.651
456.8712, 2497.458
457.3534, 2477.582
457.8355, 2455.472
458.3176, 2441.416
458.7997, 2450.608
459.2818, 2473.059
459.7639, 2486.507
460.2461, 2484.804
460.7282, 2475.251
461.2103, 2462.284
461.6924, 2445.840
462.1745, 2424.060
462.6566, 2394.247
463.1388, 2363.001
463.6209, 2343.780
464.1030, 2339.381
464.5851, 2338.150
465.0672, 2340.813
465.5493, 2344.824
466.0315, 2351.251
466.5136, 2358.293
466.9957, 2357.262
467.4778, 2338.309
467.9599, 2301.545
468.4420, 2279.733
468.9242, 2286.440
469.4063, 2293.422
469.8884, 2298.285
470.3705, 2298.871
470.8526, 2291.398
471.3347, 2274.289
471.8169, 2253.710
472.2990, 2240.093
472.7811, 2234.560
473.2632, 2231.225
473.7453, 2233.767
474.2274, 2234.490
474.7096, 2227.354
475.1917, 2213.606
475.6738, 2200.580
476.1559, 2193.251
476.6380, 2189.602
477.1201, 2185.042
477.6023, 2179.335
478.0844, 2173.722
478.5665, 2168.154
479.0486, 2163.465
479.5307, 2161.576
480.0128, 2165.250
480.4950, 2167.060
480.9771, 2164.240
481.4592, 2156.744
481.9413, 2142.318
482.4234, 2119.742
482.9055, 2096.988
483.3877, 2084.500
483.8698, 2085.619
484.3519, 2083.619
484.8340, 2074.415
485.3161, 2066.024
485.7982, 2065.478
486.2804, 2069.350
486.7625, 2067.987
487.2446, 2054.957
487.7267, 2035.317
488.2088, 2027.293
488.6909, 2043.236
489.1731, 2048.203
489.6552, 2027.416
490.1373, 2003.018
490.6194, 1994.388
491.1015, 2002.754
491.5836, 2011.618
492.0658, 2003.503
492.5479, 1981.299
493.0300, 1966.946
493.5121, 1963.714
493.9942, 1962.895
494.4763, 1960.614
494.9585, 1957.004
495.4406, 1951.837
495.9227, 1943.722
496.4048, 1936.007
496.8869, 1932.704
497.3690, 1932.311
497.8512, 1928.970
498.3333, 1920.237
498.8154, 1909.608
499.2975, 1901.794
499.7796, 1896.963
500.2617, 1894.661
500.7439, 1899.187
501.2260, 1902.741
501.7081, 1899.266
502.1902, 1889.674
502.6723, 1878.457
503.1544, 1868.480
503.6366, 1859.288
504.1187, 1848.548
504.6008, 1826.784
505.0829, 1818.743
505.5650, 1841.078
506.0471, 1867.807
506.5293, 1875.993
507.0114, 1862.671
507.4935, 1843.136
507.9756, 1831.592
508.4577, 1827.329
508.9398, 1821.611
509.4220, 1812.441
509.9041, 1805.405
510.3862, 1806.145
510.8683, 1810.565
511.3504, 1811.693
511.8326, 1806.674
512.3147, 1799.987
512.7968, 1796.106
513.2789, 1793.665
513.7610, 1786.047
514.2432, 1769.400
514.7253, 1754.104
515.2074, 1756.292
515.6895, 1782.557
516.1716, 1795.151
516.6537, 1781.503
517.1359, 1764.235
517.6180, 1757.262
518.1001, 1758.555
518.5822, 1760.543
519.0643, 1759.197
519.5464, 1754.204
520.0286, 1743.484
520.5107, 1718.641
520.9928, 1704.212
521.4749, 1712.223
521.9570, 1722.474
522.4391, 1720.805
522.9213, 1706.712
523.4034, 1688.953
523.8855, 1670.797
524.3676, 1654.252
524.8497, 1649.495
525.3318, 1660.431
525.8140, 1669.749
526.2961, 1666.444
526.7782, 1656.974
527.2603, 1651.743
527.7424, 1652.701
528.2245, 1655.277
528.7067, 1659.572
529.1888, 1663.237
529.6709, 1660.820
530.1530, 1651.199
530.6351, 1640.505
531.1172, 1635.346
531.5994, 1636.441
532.0815, 1631.825
532.5636, 1612.125
533.0457, 1598.084
533.5278, 1602.044
534.0099, 1614.156
534.4921, 1620.036
534.9742, 1614.194
535.4563, 1601.868
535.9384, 1590.678
536.4205, 1580.856
536.9026, 1571.042
537.3848, 1557.322
537.8669, 1547.913
538.3490, 1550.895
538.8311, 1561.319
539.3132, 1566.039
539.7953, 1555.715
540.2775, 1541.110
540.7596, 1536.063
541.2417, 1540.005
541.7238, 1547.658
542.2059, 1560.605
542.6880, 1571.156
543.1702, 1563.373
543.6523, 1533.199
544.1344, 1512.347
544.6165, 1513.031
545.0986, 1518.543
545.5807, 1514.764
546.0629, 1503.635
546.5450, 1496.493
547.0271, 1501.085
547.5092, 1512.363
547.9913, 1512.379
548.4734, 1489.221
548.9556, 1475.807
549.4377, 1482.274
549.9198, 1492.442
550.4019, 1495.647
550.8840, 1491.182
551.3661, 1484.023
551.8483, 1476.174
552.3304, 1468.762
552.8125, 1465.843
553.2946, 1468.219
553.7767, 1471.276
554.2589, 1473.297
554.7410, 1474.514
555.2231, 1475.805
555.7052, 1478.022
556.1873, 1477.669
556.6694, 1471.326
557.1516, 1462.636
557.6337, 1456.325
558.1158, 1452.871
558.5979, 1450.056
559.0800, 1445.939
559.5621, 1440.829
560.0443, 1437.945
560.5264, 1437.115
561.0085, 1438.928
561.4906, 1447.646
561.9727, 1456.622
562.4548, 1458.754
562.9370, 1453.074
563.4191, 1445.233
563.9012, 1440.882
564.3833, 1439.620
564.8654, 1436.762
565.3475, 1431.215
565.8297, 1426.558
566.3118, 1425.104
566.7939, 1425.607
567.2760, 1426.482
567.7581, 1427.767
568.2402, 1428.802
568.7224, 1432.093
569.2045, 1434.093
569.6866, 1425.125
570.1687, 1403.828
570.6508, 1385.367
571.1329, 1385.464
571.6151, 1404.051
572.0972, 1410.973
572.5793, 1392.873
573.0614, 1379.979
573.5435, 1383.521
574.0256, 1393.282
574.5078, 1397.034
574.9899, 1391.782
575.4720, 1384.096
575.9541, 1381.463
576.4362, 1383.703
576.9183, 1385.364
577.4005, 1387.189
577.8826, 1386.822
578.3647, 1380.148
578.8468, 1371.162
579.3289, 1366.504
579.8110, 1369.197
580.2932, 1372.106
580.7753, 1370.180
581.2574, 1365.613
581.7395, 1363.025
582.2216, 1363.319
582.7037, 1362.961
583.1859, 1357.787
583.6680, 1347.749
584.1501, 1344.525
584.6322, 1358.380
585.1143, 1366.281
585.5964, 1358.904
586.0786, 1345.309
586.5607, 1334.876
587.0428, 1330.294
587.5249, 1329.495
588.0070, 1332.406
588.4891, 1338.393
588.9713, 1337.502
589.4534, 1325.266
589.9355, 1315.786
590.4176, 1320.921
590.8997, 1332.739
591.3818, 1338.342
591.8640, 1334.516
592.3461, 1328.709
592.8282, 1325.355
593.3103, 1322.222
593.7924, 1313.877
594.2745, 1300.132
594.7567, 1289.200
595.2388, 1288.803
595.7209, 1298.124
596.2030, 1304.388
596.6851, 1309.410
597.1672, 1308.702
597.6494, 1296.175
598.1315, 1281.039
598.6136, 1272.025
599.0957, 1270.411
599.5778, 1271.194
600.0599, 1270.508
600.5421, 1268.607
601.0242, 1267.516
601.5063, 1268.340
601.9884, 1264.582
602.4705, 1249.831
602.9526, 1230.028
603.4348, 1216.937
603.9169, 1211.313
604.3990, 1209.811
604.8811, 1216.004
605.3632, 1222.889
605.8453, 1220.587
606.3275, 1210.522
606.8096, 1204.473
607.2917, 1211.405
607.7738, 1227.124
608.2559, 1234.016
608.7380, 1227.612
609.2202, 1220.758
609.7023, 1212.641
610.1844, 1206.443
610.6665, 1206.411
611.1486, 1211.191
611.6307, 1213.425
612.1129, 1206.391
612.5950, 1195.641
613.0771, 1189.946
613.5592, 1189.151
614.0413, 1190.554
614.5234, 1194.373
615.0056, 1197.564
615.4877, 1194.395
615.9698, 1182.164
616.4519, 1173.834
616.9340, 1170.223
617.4161, 1170.417
617.8983, 1178.765
618.3804, 1189.910
618.8625, 1191.900
619.3446, 1178.821
619.8267, 1160.286
620.3088, 1153.942
620.7910, 1162.118
621.2731, 1166.147
621.7552, 1161.015
622.2373, 1156.013
622.7194, 1158.840
623.2015, 1166.074
623.6837, 1169.167
624.1658, 1164.200
624.6479, 1157.221
625.1300, 1150.806
625.6121, 1145.702
626.0942, 1145.148
626.5764, 1149.732
627.0585, 1152.518
627.5406, 1145.600
628.0227, 1128.704
628.5048, 1117.963
628.9869, 1120.151
629.4691, 1120.699
629.9512, 1115.330
630.4333, 1108.328
630.9154, 1103.379
631.3975, 1101.447
631.8796, 1102.769
632.3618, 1111.039
632.8439, 1122.481
633.3260, 1124.917
633.8081, 1117.232
634.2902, 1107.466
634.7723, 1098.005
635.2545, 1090.033
635.7366, 1086.866
636.2187, 1090.237
636.7008, 1092.648
637.1829, 1090.991
637.6650, 1089.549
638.1472, 1095.003
638.6293, 1103.756
639.1114, 1103.773
639.5935, 1087.113
640.0756, 1063.482
640.5577, 1055.625
641.0399, 1067.299
641.5220, 1076.041
642.0041, 1079.098
642.4862, 1078.222
642.9683, 1073.458
643.4504, 1065.939
643.9326, 1059.190
644.4147, 1052.231
644.8968, 1048.639
645.3789, 1056.157
645.8610, 1067.943
646.3431, 1067.773
646.8253, 1051.999
647.3074, 1033.119
647.7895, 1024.868
648.2716, 1027.367
648.7537, 1024.299
649.2358, 1006.821
649.7180, 995.4700
650.2001, 999.0024
650.6822, 1007.259
651.1643, 1009.632
651.6464, 1004.723
652.1285, 1000.689
652.6107, 1004.893
653.0928, 1013.445
653.5749, 1019.752
654.0571, 1023.561
654.5392, 1022.245
655.0213, 1013.152
655.5034, 1000.692
655.9855, 993.4200
656.4677, 993.6025
656.9498, 994.1240
657.4319, 997.2316
657.9140, 998.5134
658.3961, 992.9597
658.8782, 984.2159
659.3604, 980.1129
659.8425, 984.4351
660.3246, 991.2784
660.8067, 992.1581
661.2888, 987.3878
661.7709, 981.7260
662.2531, 974.5760
662.7352, 969.6365
663.2173, 971.4847
663.6994, 977.6155
664.1815, 978.8242
664.6636, 971.2581
665.1458, 964.2712
665.6279, 961.6591
666.1100, 960.5250
666.5921, 956.6725
667.0742, 950.6672
667.5563, 948.0935
668.0385, 954.2557
668.5206, 965.0465
669.0027, 965.5934
669.4848, 952.7277
669.9669, 940.7531
670.4490, 933.3257
670.9312, 926.9577
671.4133, 917.2820
671.8954, 905.3915
672.3775, 898.0937
672.8596, 899.8393
673.3417, 904.3365
673.8239, 910.8290
674.3060, 916.1340
674.7881, 910.8056
675.2702, 893.0141
675.7523, 876.7328
676.2344, 879.4959
676.7166, 901.4230
677.1987, 908.9266
677.6808, 890.5510
678.1629, 875.9117
678.6450, 876.6631
679.1271, 881.9084
679.6093, 880.5394
680.0914, 871.3873
680.5735, 863.8201
681.0556, 866.3424
681.5377, 870.9293
682.0198, 866.8077
682.5020, 855.1234
682.9841, 842.3892
683.4662, 831.1323
683.9483, 821.8950
684.4304, 815.5544
684.9125, 812.5485
685.3947, 810.9274
685.8768, 814.8158
686.3589, 815.5084
686.8410, 805.9154
687.3231, 793.2386
687.8052, 788.1449
688.2874, 793.8458
688.7695, 801.6120
689.2516, 806.2870
689.7337, 807.6131
690.2158, 803.7065
690.6979, 794.7361
691.1801, 786.8293
691.6622, 783.8386
692.1443, 783.3933
692.6264, 779.5297
693.1085, 769.0993
693.5906, 761.3952
694.0728, 758.8124
694.5549, 756.3501
695.0370, 749.9456
695.5191, 742.1397
696.0012, 738.8734
696.4833, 743.4017
696.9655, 748.1175
697.4476, 743.0923
697.9297, 731.3597
698.4118, 723.1972
698.8939, 719.9287
699.3760, 719.8422
699.8582, 722.5011
700.3403, 727.0517
700.8224, 730.2094
701.3045, 734.1346
701.7866, 733.4603
702.2687, 722.4597
702.7509, 711.7304
703.2330, 709.1714
703.7151, 712.9128
704.1972, 716.9422
704.6793, 718.9520
705.1614, 718.1044
705.6436, 711.1883
706.1257, 699.7419
706.6078, 692.7280
707.0899, 692.0164
707.5720, 693.3544
708.0541, 693.1516
708.5363, 692.0940
709.0184, 694.7976
709.5005, 707.4420
709.9826, 715.1548
710.4647, 714.8651
710.9468, 710.4668
711.4290, 702.1008
711.9111, 692.1320
712.3932, 686.4611
712.8753, 689.4229
713.3574, 696.2589
713.8395, 700.5229
714.3217, 702.2994
714.8038, 701.4665
715.2859, 697.3781
715.7680, 693.5294
716.2501, 692.7519
716.7322, 694.8925
717.2144, 698.4706
717.6965, 706.7914
718.1786, 711.9988
718.6607, 710.9890
719.1428, 708.0837
719.6249, 707.5400
720.1071, 708.6719
720.5892, 706.8156
721.0713, 697.4543
721.5534, 686.6268
722.0355, 684.2682
722.5176, 689.2993
722.9998, 694.8600
723.4819, 699.8254
723.9640, 702.7178
724.4461, 700.7606
724.9282, 694.7898
725.4103, 696.4498
725.8925, 720.7312
726.3746, 732.2878
726.8567, 714.2078
727.3388, 691.5385
727.8209, 686.1043
728.3030, 695.9780
728.7852, 703.8690
729.2673, 698.9814
729.7494, 688.9144
730.2315, 684.4677
730.7136, 684.3185
731.1957, 680.5948
731.6779, 670.9513
732.1600, 664.0505
732.6421, 669.1117
733.1242, 684.3779
733.6063, 691.1362
734.0884, 681.3367
734.5706, 673.7308
735.0527, 671.8353
735.5348, 670.8973
736.0169, 666.7074
736.4990, 660.0789
736.9811, 655.0609
737.4633, 653.9743
737.9454, 654.7684
738.4275, 656.1257
738.9096, 657.4716
739.3917, 657.0784
739.8738, 654.6037
740.3560, 650.3252
740.8381, 643.8342
741.3202, 636.0564
741.8023, 632.8777
742.2844, 637.5626
742.7665, 641.1656
743.2487, 644.3890
743.7308, 644.9998
744.2129, 639.9805
744.6950, 631.0896
745.1771, 623.5487
745.6592, 619.7061
746.1414, 617.0895
746.6235, 614.9105
747.1056, 612.1631
747.5877, 605.8400
748.0698, 596.0220
748.5519, 587.5145
749.0341, 584.1458
749.5162, 584.2206
749.9983, 581.8798
750.4804, 576.4800
750.9625, 570.2924
751.4446, 560.7247
751.9268, 553.5607
752.4089, 554.3103
752.8910, 559.6713
753.3731, 561.3358
753.8552, 555.4347
754.3373, 550.0693
754.8195, 552.3203
755.3016, 555.5391
755.7837, 549.8508
756.2658, 536.6040
756.7479, 525.3320
757.2300, 521.7736
757.7122, 523.0724
758.1943, 524.6362
758.6764, 526.9809
759.1585, 523.8715
759.6406, 512.3276
760.1227, 500.2862
760.6049, 491.7010
761.0870, 486.3240
761.5691, 483.6215
762.0512, 485.2728
762.5333, 485.3791
763.0154, 481.4621
763.4976, 476.5001
763.9797, 473.3688
764.4618, 470.9441
764.9439, 465.5216
765.4260, 455.4634
765.9081, 445.5233
766.3903, 442.9063
766.8724, 446.0770
767.3545, 446.2798
767.8366, 442.7694
768.3187, 438.8220
768.8008, 436.0912
769.2830, 433.7878
769.7651, 430.5015
770.2472, 426.3828
770.7293, 420.6629
771.2114, 409.0680
771.6935, 400.7027
772.1757, 402.6678
772.6578, 408.4153
773.1399, 407.8934
773.6220, 399.0747
774.1041, 391.7478
774.5862, 396.2449
775.0684, 405.1970
775.5505, 406.3008
776.0326, 400.4963
776.5147, 393.7094
776.9968, 387.8705
777.4789, 383.8480
777.9611, 383.3438
778.4432, 386.6028
778.9253, 385.6470
779.4074, 375.2422
779.8895, 369.3975
780.3716, 376.9498
780.8538, 386.3610
781.3359, 386.6337
781.8180, 378.4484
782.3001, 373.0110
782.7822, 377.1470
783.2643, 382.0461
783.7465, 381.5569
784.2286, 378.0946
784.7107, 375.6265
785.1928, 374.7343
785.6749, 373.2884
786.1570, 369.3721
786.6392, 364.0025
787.1213, 360.1625
787.6034, 357.9279
788.0855, 356.7043
788.5676, 357.0448
789.0497, 356.9401
789.5319, 353.8323
790.0140, 348.7454
790.4961, 347.2842
790.9782, 353.2974
791.4603, 357.2076
791.9424, 355.7359
792.4246, 353.3471
792.9067, 353.2892
793.3888, 355.0794
793.8709, 357.0167
794.3530, 358.5592
794.8351, 358.8775
795.3173, 355.8345
795.7994, 351.0755
796.2815, 349.4852
796.7636, 351.2851
797.2457, 352.5836
797.7278, 351.2307
798.2100, 348.5319
798.6921, 347.2401
799.1742, 348.2211
799.6563, 347.1380
800.1384, 341.6837
800.6205, 337.2390
801.1027, 335.0089
801.5848, 335.1000
802.0669, 338.9990
802.5490, 347.0666
803.0311, 352.0725
803.5132, 347.9318
803.9954, 342.8230
804.4775, 344.0592
804.9596, 348.5514
805.4417, 350.2086
805.9238, 347.5372
806.4059, 343.2559
806.8881, 339.4218
807.3702, 336.3386
807.8523, 336.0932
808.3344, 339.0898
808.8165, 338.0529
809.2986, 329.2969
809.7808, 320.9193
810.2629, 321.3543
810.7450, 329.7427
811.2271, 334.6992
811.7092, 333.4527
812.1913, 332.8099
812.6735, 334.5172
813.1556, 336.1523
813.6377, 335.7106
814.1198, 333.7318
814.6019, 332.1256
815.0840, 331.8811
815.5662, 331.3215
816.0483, 327.8076
816.5304, 323.5757
817.0125, 322.6444
817.4946, 324.9785
817.9767, 328.6414
818.4589, 332.7946
818.9410, 335.9891
819.4232, 334.8391
819.9053, 328.6283
820.3874, 325.4422
820.8695, 326.7270
821.3516, 327.5752
821.8337, 325.0133
822.3159, 321.5502
822.7980, 321.6632
823.2801, 326.0444
823.7622, 327.3914
824.2443, 321.6145
824.7264, 316.4547
825.2086, 315.7239
825.6907, 317.0470
826.1728, 316.5337
826.6549, 314.3273
827.1370, 315.4303
827.6191, 326.8163
828.1013, 338.9645
828.5834, 335.5359
829.0655, 321.3322
829.5476, 312.8869
830.0297, 313.3673
830.5118, 316.1575
830.9940, 316.2993
831.4761, 314.4807
831.9582, 312.8817
832.4403, 311.1179
832.9224, 310.9124
833.4045, 312.8955
833.8867, 315.7905
834.3688, 320.6396
834.8509, 325.4077
835.3330, 325.6912
835.8151, 319.1705
836.2972, 314.7841
836.7794, 316.6964
837.2615, 319.4106
837.7436, 319.4698
838.2257, 317.7103
838.7078, 315.4908
839.1899, 313.3615
839.6721, 312.4167
840.1542, 314.5285
840.6363, 318.0879
841.1184, 320.5072
841.6005, 321.6041
842.0826, 319.6669
842.5648, 314.0721
843.0469, 308.4427
843.5290, 306.3523
844.0111, 307.5449
844.4932, 310.4724
844.9753, 316.5273
845.4575, 320.6986
845.9396, 321.5404
846.4217, 321.0774
846.9038, 320.3776
847.3859, 319.5067
847.8680, 318.5836
848.3502, 317.3295
848.8323, 316.6284
849.3144, 320.1609
849.7965, 321.2141
850.2786, 310.1657
850.7607, 293.8441
851.2429, 287.3880
851.7250, 295.9977
852.2071, 307.1318
852.6892, 309.4085
853.1713, 306.1308
853.6534, 303.3912
854.1356, 301.2475
854.6177, 298.7161
855.0998, 295.4288
855.5819, 292.4862
856.0640, 290.8937
856.5461, 290.7800
857.0283, 293.9815
857.5104, 302.0097
857.9925, 308.9681
858.4746, 314.9007
858.9567, 317.9395
859.4388, 314.5211
859.9210, 306.6473
860.4031, 302.2606
860.8852, 304.7536
861.3673, 305.7399
861.8494, 301.9174
862.3315, 297.8141
862.8137, 297.1031
863.2958, 298.3365
863.7779, 298.2152
864.2600, 295.6429
864.7421, 292.3722
865.2242, 288.7468
865.7064, 285.9162
866.1885, 286.3256
866.6706, 289.1010
867.1527, 290.7683
867.6348, 290.3059
868.1169, 290.3988
868.5991, 294.4443
869.0812, 301.2115
869.5633, 303.7848
870.0454, 301.4021
870.5275, 300.5127
871.0096, 303.4983
871.4918, 305.7630
871.9739, 302.9775
872.4560, 296.3713
872.9381, 291.9057
873.4202, 290.5859
873.9023, 289.9616
874.3845, 290.5235
874.8666, 291.2541
875.3487, 291.6983
875.8308, 291.9405
876.3129, 292.1640
876.7950, 292.4115
877.2772, 292.5903
877.7593, 292.0739
878.2414, 291.9969
878.7235, 294.2381
879.2056, 297.3570
879.6877, 298.3849
880.1699, 296.8546
880.6520, 295.1221
881.1341, 295.3398
881.6162, 296.3487
882.0983, 295.1476
882.5804, 292.1714
883.0626, 291.3242
883.5447, 293.4348
884.0268, 294.8759
884.5089, 292.9602
884.9910, 288.9498
885.4731, 285.9568
885.9553, 283.1980
886.4374, 284.5237
886.9195, 294.6970
887.4016, 301.3975
887.8837, 295.8570
888.3658, 285.7378
888.8480, 281.2319
889.3301, 282.8795
889.8122, 284.8661
890.2943, 288.0365
890.7764, 289.3626
891.2585, 284.9485
891.7407, 279.9984
892.2228, 280.9151
892.7049, 286.8838
893.1870, 291.1854
893.6691, 289.2982
894.1512, 287.3862
894.6334, 294.8929
895.1155, 304.2383
895.5976, 299.9767
896.0797, 284.2883
896.5618, 272.5640
897.0439, 272.0953
897.5261, 277.5212
898.0082, 282.3931
898.4903, 286.6266
898.9724, 289.2483
899.4545, 290.1895
899.9366, 290.4736
900.4188, 290.3504
900.9009, 289.9645
901.3830, 289.5792
901.8651, 289.1174
902.3472, 287.3880
902.8293, 282.6465
903.3115, 280.1068
903.7936, 282.5450
904.2757, 285.0322
904.7578, 283.7614
905.2399, 280.6573
905.7220, 280.5920
906.2042, 286.2858
906.6863, 287.7949
907.1684, 277.4538
907.6505, 267.7493
908.1326, 266.9545
908.6147, 271.1639
909.0969, 275.0570
909.5790, 277.2835
910.0611, 278.0816
910.5432, 276.3820
911.0253, 274.5924
911.5074, 275.8229
911.9896, 278.6880
912.4717, 280.3724
912.9538, 280.6204
913.4359, 281.0399
913.9180, 282.7188
914.4001, 284.4521
914.8823, 283.6079
915.3644, 280.6259
915.8465, 279.2953
916.3286, 279.8578
916.8107, 281.4791
917.2928, 284.2389
917.7750, 286.3008
918.2571, 284.7742
918.7392, 279.6523
919.2213, 277.3049
919.7034, 280.4946
920.1855, 280.1466
920.6677, 270.2127
921.1498, 261.0195
921.6319, 261.6078
922.1140, 269.3192
922.5961, 276.2349
923.0782, 284.5537
923.5604, 287.0292
924.0425, 276.7080
924.5246, 266.6331
925.0067, 263.6534
925.4888, 265.5371
925.9709, 269.4194
926.4531, 274.5278
926.9352, 278.3784
927.4173, 280.3906
927.8994, 279.9259
928.3815, 273.7769
928.8636, 266.1760
929.3458, 263.9961
929.8279, 267.2297
930.3100, 271.4393
930.7921, 274.4629
931.2742, 275.2435
931.7563, 269.5797
932.2385, 261.0366
932.7206, 261.2967
933.2027, 269.8536
933.6848, 276.7664
934.1669, 278.0705
934.6490, 276.3470
935.1312, 274.3297
935.6133, 272.2212
936.0954, 272.2339
936.5775, 275.0425
937.0596, 274.5857
937.5417, 267.9566
938.0239, 262.8716
938.5060, 266.3346
938.9881, 275.1709
939.4702, 278.3579
939.9523, 272.9547
940.4344, 268.8279
940.9166, 266.8792
941.3987, 265.0852
941.8808, 262.7740
942.3629, 260.1985
942.8450, 256.5958
943.3271, 252.0211
943.8093, 251.7684
944.2914, 262.1531
944.7735, 269.8907
945.2556, 268.0933
945.7377, 264.0963
946.2198, 264.5377
946.7020, 268.2082
947.1841, 270.4772
947.6662, 269.8148
948.1483, 267.4959
948.6304, 261.8010
949.1125, 256.9613
949.5947, 258.4646
950.0768, 263.8282
950.5589, 268.2229
951.0410, 270.2961
951.5231, 270.9262
952.0052, 270.7568
952.4874, 269.5862
952.9695, 265.6299
953.4516, 260.5462
953.9337, 260.9471
954.4158, 266.7078
954.8979, 269.0681
955.3801, 263.0861
955.8622, 254.6288
956.3443, 253.6755
956.8264, 259.5031
957.3085, 261.9091
957.7906, 260.5021
958.2728, 261.2613
958.7549, 266.4818
959.2370, 272.0605
959.7191, 274.1203
960.2012, 273.2664
960.6833, 272.4942
961.1655, 272.1223
961.6476, 270.7640
962.1297, 267.3716
962.6118, 264.6370
963.0939, 263.5940
963.5760, 264.1719
964.0582, 267.1972
964.5403, 273.8151
965.0224, 275.5414
965.5045, 267.7126
965.9866, 261.2371
966.4688, 258.5481
966.9509, 257.9272
967.4330, 258.9115
967.9151, 260.7758
968.3972, 261.6261
968.8793, 260.5118
969.3615, 259.9298
969.8436, 263.2976
970.3257, 264.8036
970.8078, 257.7129
971.2899, 247.7031
971.7720, 243.1411
972.2542, 245.2348
972.7363, 249.5821
973.2184, 256.0374
973.7005, 260.8366
974.1826, 259.9095
974.6647, 256.0558
975.1469, 251.5054
975.6290, 247.6787
976.1111, 248.0437
976.5932, 254.0823
977.0753, 260.1858
977.5574, 259.4643
978.0396, 255.4063
978.5217, 254.8784
979.0038, 256.9120
979.4859, 257.8575
979.9680, 256.9232
980.4501, 255.2595
980.9323, 253.5807
981.4144, 252.2839
981.8965, 252.2028
982.3786, 253.2619
982.8607, 255.5121
983.3429, 258.9596
983.8250, 260.0658
984.3071, 257.1325
984.7892, 253.0722
985.2714, 251.3294
985.7535, 251.6877
986.2356, 252.6042
986.7177, 254.3412
987.1998, 254.9915
987.6819, 253.8769
988.1641, 252.8004
988.6462, 252.8878
989.1283, 253.7425
989.6104, 254.3717
990.0925, 254.3692
990.5746, 256.5461
991.0568, 264.2159
991.5389, 267.8488
992.0210, 262.5697
992.5031, 254.8483
992.9852, 250.2711
993.4673, 248.3148
993.9495, 245.9451
994.4316, 241.6779
994.9137, 239.5243
995.3958, 238.5729
995.8779, 240.9797
996.3600, 252.2629
996.8422, 264.7659
997.3243, 267.9370
997.8064, 261.3131
998.2885, 255.7717
998.7706, 253.3259
999.2527, 252.7834
999.7349, 255.6042
1000.217, 258.5568
1000.699, 258.4762
1001.181, 256.7148
1001.663, 256.8426
1002.145, 260.0185
1002.628, 261.7039
1003.110, 258.2281
1003.592, 254.1912
1004.074, 251.7974
1004.556, 251.3019
1005.038, 254.6657
1005.520, 260.2769
1006.002, 261.8212
1006.484, 255.2678
1006.967, 248.8088
1007.449, 250.9882
1007.931, 255.3775
1008.413, 253.3664
1008.895, 247.5939
1009.377, 244.1632
1009.859, 244.6801
1010.341, 248.0922
1010.824, 255.2231
1011.306, 261.6830
1011.788, 260.8275
1012.270, 255.3039
1012.752, 249.2121
1013.234, 243.7477
1013.716, 241.8888
1014.198, 244.6539
1014.680, 248.0600
1015.163, 247.6160
1015.645, 244.9146
1016.127, 243.5225
1016.609, 243.2735
1017.091, 243.3110
1017.573, 243.5700
1018.055, 245.2182
1018.537, 249.0329
1019.020, 253.3441
1019.502, 255.0677
1019.984, 254.7139
1020.466, 256.7375
1020.948, 260.9362
1021.430, 260.8947
1021.912, 254.6837
1022.394, 248.9650
1022.876, 249.1778
1023.359, 252.8888
1023.841, 254.1964
1024.323, 253.0550
1024.805, 249.7392
1025.287, 243.5408
1025.769, 241.2929
1026.251, 246.5890
1026.733, 251.9366
1027.215, 248.6428
1027.698, 239.0550
1028.180, 236.5486
1028.662, 243.4888
1029.144, 245.3055
1029.626, 238.3230
1030.108, 234.1341
1030.590, 239.0982
1031.072, 247.9444
1031.555, 253.7885
1032.037, 256.6133
1032.519, 255.9609
1033.001, 249.5680
1033.483, 245.9026
1033.965, 247.9278
1034.447, 249.6183
1034.929, 246.3076
1035.411, 241.3065
1035.894, 241.5078
1036.376, 248.4126
1036.858, 251.3144
1037.340, 246.8395
1037.822, 244.3391
1038.304, 248.3290
1038.786, 251.6979
1039.268, 246.6427
1039.750, 237.5214
1040.233, 237.7619
1040.715, 254.1882
1041.197, 261.1034
1041.679, 248.8831
1042.161, 239.8426
1042.643, 243.1400
1043.125, 248.9723
1043.607, 247.7358
1044.090, 241.5245
1044.572, 240.3430
1045.054, 249.5251
1045.536, 253.9644
1046.018, 248.4652
1046.500, 242.8167
1046.982, 240.8975
1047.464, 240.7875
1047.947, 240.5300
1048.429, 240.0436
1048.911, 239.7314
1049.393, 240.7706
1049.875, 240.2286
1050.357, 235.3730
1050.839, 231.2762
1051.321, 230.9037
1051.803, 232.7867
1052.286, 235.6772
1052.768, 239.2171
1053.250, 240.4989
1053.732, 235.8091
1054.214, 233.1159
1054.696, 236.3493
1055.178, 240.4474
1055.660, 243.3846
1056.142, 244.2106
1056.625, 240.3661
1057.107, 231.4897
1057.589, 226.4573
1058.071, 231.3744
1058.553, 235.9272
1059.035, 234.5079
1059.517, 232.8032
1059.999, 237.7582
1060.482, 245.2255
1060.964, 245.4196
1061.446, 235.8247
1061.928, 227.9504
1062.410, 225.8558
1062.892, 226.3664
1063.374, 229.2648
1063.856, 233.0000
1064.339, 236.9238
1064.821, 240.3989
1065.303, 242.3419
1065.785, 242.4737
1066.267, 241.1755
1066.749, 237.6290
1067.231, 233.8381
1067.713, 229.5598
1068.195, 226.6226
1068.678, 227.4684
1069.160, 231.2815
1069.642, 235.5887
1070.124, 240.0858
1070.606, 242.8733
1071.088, 242.6606
1071.570, 240.9745
1072.052, 236.5950
1072.535, 232.7783
1073.017, 235.1111
1073.499, 241.5225
1073.981, 243.2743
1074.463, 236.2853
1074.945, 229.2394
1075.427, 224.7694
1075.909, 223.0650
1076.391, 225.8906
1076.874, 230.4759
1077.356, 233.4802
1077.838, 234.8674
1078.320, 236.8755
1078.802, 241.2802
1079.284, 243.3762
1079.766, 238.3229
1080.248, 232.9740
1080.730, 233.1376
1081.213, 235.2665
1081.695, 234.0993
1082.177, 229.8018
1082.659, 226.5623
1083.141, 225.7266
1083.623, 226.4846
1084.105, 230.6054
1084.587, 233.9550
1085.070, 232.0873
1085.552, 228.5698
1086.034, 228.9289
1086.516, 232.9788
1086.998, 235.5240
1087.480, 234.5990
1087.962, 232.2888
1088.444, 227.6120
1088.927, 223.8321
1089.409, 223.2832
1089.891, 224.9951
1090.373, 227.7995
1090.855, 231.3969
1091.337, 235.6559
1091.819, 242.3964
1092.301, 246.1047
1092.783, 242.2580
1093.266, 237.3245
1093.748, 235.7653
1094.230, 235.7073
1094.712, 233.9161
1095.194, 230.4391
1095.676, 228.5611
1096.158, 230.5271
1096.640, 231.9037
1097.122, 229.8029
1097.605, 228.2646
1098.087, 231.6535
1098.569, 235.9955
1099.051, 234.8692
1099.533, 228.6356
1100.015, 225.1409
1100.497, 228.6170
1100.979, 231.0910
1101.462, 229.8021
1101.944, 227.7930
1102.426, 225.4185
1102.908, 224.1449
1103.390, 226.4072
1103.872, 231.8793
1104.354, 236.2840
1104.836, 239.3538
1105.318, 240.5381
1105.801, 239.0770
1106.283, 236.4729
1106.765, 230.9691
1107.247, 226.3523
1107.729, 229.5090
1108.211, 239.2753
1108.693, 242.2734
1109.175, 230.9103
1109.657, 222.6611
1110.140, 220.3930
1110.622, 219.9558
1111.104, 220.6335
1111.586, 221.5563
1112.068, 221.6823
1112.550, 221.1030
1113.032, 220.9059
1113.514, 221.2240
1113.997, 221.7550
1114.479, 223.4262
1114.961, 224.0751
1115.443, 222.7705
1115.925, 220.1896
1116.407, 215.9595
1116.889, 210.8023
1117.371, 209.7151
1117.854, 214.8373
1118.336, 219.4227
1118.818, 223.6038
1119.300, 226.9039
1119.782, 229.0198
1120.264, 230.4704
1120.746, 232.4373
1121.228, 234.0407
1121.710, 230.5516
1122.193, 218.5773
1122.675, 212.8283
1123.157, 215.0812
1123.639, 219.4433
1124.121, 225.6672
1124.603, 229.4855
1125.085, 226.0140
1125.567, 218.1345
1126.049, 215.5075
1126.532, 218.9267
1127.014, 223.0224
1127.496, 228.3829
1127.978, 230.7247
1128.460, 228.4158
1128.942, 224.5817
1129.424, 221.4826
1129.906, 219.2016
1130.389, 217.9323
1130.871, 217.6743
1131.353, 218.3937
1131.835, 220.1201
1132.317, 221.6064
1132.799, 222.5393
1133.281, 223.5707
1133.763, 225.1993
1134.245, 226.9687
1134.728, 227.9252
1135.210, 228.2583
1135.692, 229.6023
1136.174, 231.5842
1136.656, 231.1013
1137.138, 227.6851
1137.620, 223.1734
1138.102, 218.5017
1138.584, 214.6638
1139.067, 213.1391
1139.549, 213.4524
1140.031, 215.4388
1140.513, 218.1093
1140.995, 217.6966
1141.477, 214.4092
1141.959, 212.2298
1142.441, 213.0089
1142.924, 214.6630
1143.406, 215.2573
1143.888, 215.2818
1144.370, 214.8657
1144.852, 214.6702
1145.334, 216.4072
1145.816, 219.4839
1146.298, 221.9949
1146.781, 223.2123
1147.263, 222.6322
1147.745, 216.5302
1148.227, 212.4854
1148.709, 221.9337
1149.191, 233.1485
1149.673, 229.4212
1150.155, 217.4541
1150.637, 214.6290
1151.120, 223.8877
1151.602, 230.7476
1152.084, 226.6483
1152.566, 221.2397
1153.048, 217.8204
1153.530, 216.3935
1154.012, 217.6004
1154.494, 220.4315
1154.976, 224.2015
1155.459, 228.4152
1155.941, 230.8140
1156.423, 231.3182
1156.905, 229.1425
1157.387, 220.5839
1157.869, 213.5244
1158.351, 212.3596
1158.833, 213.9863
1159.316, 215.9729
1159.798, 217.8670
1160.280, 217.8671
1160.762, 214.7487
1161.244, 212.3801
1161.726, 209.3838
1162.208, 209.5128
1162.690, 215.8598
1163.172, 222.8678
1163.655, 226.7793
1164.137, 227.7073
1164.619, 225.3951
1165.101, 218.9673
1165.583, 215.3184
1166.065, 214.3998
1166.547, 217.2902
1167.029, 225.8170
1167.511, 231.7765
1167.994, 229.6272
1168.476, 223.3757
1168.958, 219.1392
1169.440, 216.9162
1169.922, 216.9503
1170.404, 219.1742
1170.886, 221.1183
1171.368, 222.4254
1171.851, 221.6070
1172.333, 217.8953
1172.815, 215.1075
1173.297, 218.3678
1173.779, 224.1196
1174.261, 223.7790
1174.743, 219.1348
1175.225, 214.4247
1175.708, 210.6683
1176.190, 210.6638
1176.672, 214.7128
1177.154, 217.8029
1177.636, 215.7833
1178.118, 212.8647
1178.600, 213.6147
1179.082, 216.5185
1179.564, 220.8491
1180.047, 225.2067
1180.529, 227.2651
1181.011, 226.8362
1181.493, 225.1035
1181.975, 222.3904
1182.457, 219.2490
1182.939, 213.8232
1183.421, 210.5904
1183.903, 216.2445
1184.386, 222.6400
1184.868, 218.0745
1185.350, 207.3067
1185.832, 206.1014
1186.314, 219.3111
1186.796, 227.8054
1187.278, 225.9356
1187.760, 221.7106
1188.243, 214.4540
1188.725, 208.2900
1189.207, 205.4768
1189.689, 205.5532
1190.171, 208.8536
1190.653, 215.3128
1191.135, 218.3766
1191.617, 216.8971
1192.099, 214.7023
1192.582, 210.7772
1193.064, 210.2376
1193.546, 216.8388
1194.028, 222.6665
1194.510, 218.6918
1194.992, 208.7669
1195.474, 206.3318
1195.956, 211.3860
1196.438, 215.5813
1196.921, 218.6715
1197.403, 219.4178
1197.885, 217.5755
1198.367, 217.2879
1198.849, 221.7000
1199.331, 225.8659
1199.813, 220.1849
1200.295, 209.6488
1200.778, 206.0589
1201.260, 207.7522
1201.742, 211.0749
1202.224, 214.8458
1202.706, 217.6514
1203.188, 218.9382
1203.670, 219.1611
1204.152, 218.5797
1204.635, 217.1936
1205.117, 213.6843
1205.599, 210.4989
1206.081, 211.0574
1206.563, 213.6213
1207.045, 214.8348
1207.527, 214.2388
1208.009, 213.4666
1208.491, 212.8075
1208.974, 212.5062
1209.456, 213.5271
1209.938, 213.8326
1210.420, 210.4850
1210.902, 207.5681
1211.384, 210.8248
1211.866, 217.8273
1212.348, 219.7758
1212.830, 215.2102
1213.313, 211.8417
1213.795, 209.6033
1214.277, 208.9012
1214.759, 210.3692
1215.241, 211.9070
1215.723, 212.2243
1216.205, 212.2619
1216.687, 213.6843
1217.170, 215.9501
1217.652, 215.0427
1218.134, 211.1882
1218.616, 210.6431
1219.098, 213.7321
1219.580, 216.1779
1220.062, 216.5933
1220.544, 218.1579
1221.026, 224.2358
1221.509, 229.8859
1221.991, 225.4388
1222.473, 216.7019
1222.955, 214.9454
1223.437, 217.3553
1223.919, 216.6229
1224.401, 212.5016
1224.883, 209.1057
1225.365, 207.9964
1225.848, 209.0056
1226.330, 215.3179
1226.812, 219.6268
1227.294, 214.8557
1227.776, 208.3822
1228.258, 206.8714
1228.740, 208.4730
1229.222, 209.1414
1229.705, 208.4612
1230.187, 208.4448
1230.669, 208.7728
1231.151, 210.8170
1231.633, 217.3141
1232.115, 221.1881
1232.597, 218.7001
1233.079, 214.7843
1233.562, 213.5052
1234.044, 214.3240
1234.526, 216.2447
1235.008, 219.4763
1235.490, 219.0071
1235.972, 214.5942
1236.454, 212.4241
1236.936, 213.6302
1237.418, 214.8094
1237.901, 214.2419
1238.383, 212.8885
1238.865, 211.5786
1239.347, 210.6066
1239.829, 210.2734
1240.311, 210.8430
1240.793, 213.8389
1241.275, 218.0412
1241.758, 219.7026
1242.240, 218.5338
1242.722, 218.4082
1243.204, 221.9563
1243.686, 224.3258
1244.168, 220.7760
1244.650, 217.0290
1245.132, 217.7783
1245.615, 219.4961
1246.097, 218.3390
1246.579, 215.1814
1247.061, 212.7578
1247.543, 211.4585
1248.025, 209.9821
1248.507, 207.7520
1248.989, 206.2283
1249.471, 205.1924
1249.953, 205.7964
1250.436, 209.6505
1250.918, 212.9108
1251.400, 211.1357
1251.882, 206.2700
1252.364, 204.9567
1252.846, 207.0161
1253.328, 205.6535
1253.810, 201.1844
1254.293, 199.4321
1254.775, 201.3966
1255.257, 204.6329
1255.739, 207.8936
1256.221, 210.3431
1256.703, 210.4867
1257.185, 210.0335
1257.667, 211.4481
1258.150, 213.6431
1258.632, 214.8831
1259.114, 215.7013
1259.596, 218.8089
1260.078, 223.5594
1260.560, 222.9760
1261.042, 211.1535
1261.524, 202.8572
1262.006, 207.0657
1262.489, 210.2713
1262.971, 202.9264
1263.453, 196.2567
1263.935, 201.3210
1264.417, 212.0364
1264.899, 217.1551
1265.381, 216.6323
1265.863, 214.8165
1266.345, 211.2097
1266.828, 209.1298
1267.310, 209.1379
1267.792, 208.3519
1268.274, 205.6238
1268.756, 203.4666
1269.238, 204.0815
1269.720, 206.3543
1270.202, 208.1657
1270.685, 210.2060
1271.167, 215.5503
1271.649, 221.9495
1272.131, 223.5952
1272.613, 220.8876
1273.095, 217.7184
1273.577, 215.4811
1274.059, 214.7046
1274.542, 216.8269
1275.024, 218.8998
##END=



