##NAMES=Edoylerite
##RRUFFID=R060543
##IDEAL CHEMISTRY=Hg^2+^_3_(Cr^6+^O_4_)S^2-^_2_
##LOCALITY=Clear Creek claim, south San Benito County, California, USA
##OWNER=RRUFF
##SOURCE=Michael Scott
##DESCRIPTION=Aggregates of yellowish-orange bladed crystals
##STATUS=The identification of this mineral is confirmed by single-crystal X-ray diffraction and chemical analysis.
##URL=rruff.info/R060543
##MEASURED CHEMISTRY=Hg^2+^_3.00_(Cr^6+^_1.00_O_4_)S_2.00_
112.844, 0.000
113.326, 4.815
113.808, 1.048
114.290, 3.762
114.772, 1.697
115.254, 18.389
115.736, 36.481
116.218, 49.698
116.701, 57.359
117.183, 72.041
117.665, 103.688
118.147, 143.073
118.629, 179.862
119.111, 207.646
119.593, 232.420
120.075, 256.469
120.558, 279.266
121.040, 304.829
121.522, 337.509
122.004, 375.079
122.486, 412.174
122.968, 448.017
123.450, 480.908
123.932, 508.557
124.414, 529.038
124.897, 545.994
125.379, 563.409
125.861, 580.861
126.343, 596.495
126.825, 607.626
127.307, 615.762
127.789, 624.472
128.271, 636.308
128.753, 648.855
129.236, 657.348
129.718, 661.605
130.200, 663.229
130.682, 663.424
131.164, 662.254
131.646, 660.553
132.128, 656.450
132.610, 651.271
133.093, 652.270
133.575, 660.233
134.057, 673.539
134.539, 691.812
135.021, 715.787
135.503, 737.477
135.985, 749.889
136.467, 752.581
136.949, 757.813
137.432, 767.357
137.914, 780.506
138.396, 794.665
138.878, 810.096
139.360, 825.475
139.842, 840.588
140.324, 856.792
140.806, 867.147
141.288, 867.784
141.771, 858.314
142.253, 856.935
142.735, 867.887
143.217, 882.904
143.699, 890.918
144.181, 889.993
144.663, 885.532
145.145, 878.658
145.628, 868.681
146.110, 858.148
146.592, 846.297
147.074, 833.909
147.556, 823.322
148.038, 816.376
148.520, 809.141
149.002, 800.148
149.484, 789.711
149.967, 776.839
150.449, 762.310
150.931, 745.652
151.413, 724.526
151.895, 688.382
152.377, 654.262
152.859, 632.738
153.342, 642.944
153.824, 646.023
154.306, 634.700
154.788, 608.607
155.270, 581.883
155.752, 551.477
156.234, 523.685
156.716, 503.454
157.198, 499.896
157.680, 495.359
158.163, 484.651
158.645, 463.956
159.127, 444.444
159.609, 430.894
160.091, 421.895
160.573, 413.963
161.055, 402.145
161.538, 393.405
162.020, 391.459
162.502, 405.355
162.984, 415.030
163.466, 404.068
163.948, 377.451
164.430, 355.967
164.912, 353.576
165.394, 356.855
165.876, 355.780
166.359, 341.020
166.841, 328.782
167.323, 332.883
167.805, 350.471
168.287, 365.609
168.769, 371.421
169.251, 371.099
169.733, 366.716
170.216, 353.674
170.698, 334.266
171.180, 315.315
171.662, 296.871
172.144, 283.365
172.626, 281.102
173.108, 285.436
173.590, 288.359
174.072, 286.888
174.555, 282.182
175.037, 275.524
175.519, 267.242
176.001, 256.645
176.483, 239.355
176.965, 218.212
177.447, 201.913
177.929, 197.985
178.412, 201.129
178.894, 203.425
179.376, 204.217
179.858, 203.253
180.340, 199.569
180.822, 193.478
181.304, 186.811
181.786, 180.559
182.268, 174.598
182.751, 168.429
183.233, 161.446
183.715, 154.995
184.197, 152.291
184.679, 153.169
185.161, 153.749
185.643, 150.392
186.125, 143.960
186.607, 138.006
187.090, 133.482
187.572, 129.902
188.054, 125.276
188.536, 119.364
189.018, 115.453
189.500, 120.396
189.982, 132.465
190.464, 137.625
190.947, 126.954
191.429, 105.730
191.911, 97.984
192.393, 106.172
192.875, 117.193
193.357, 112.988
193.839, 93.613
194.321, 77.287
194.803, 73.224
195.286, 80.089
195.768, 81.290
196.250, 75.689
196.732, 67.153
197.214, 61.718
197.696, 59.796
198.178, 57.471
198.661, 51.939
199.143, 43.123
199.625, 37.388
200.107, 34.784
200.589, 35.518
201.071, 42.482
201.553, 57.971
202.035, 69.137
202.517, 65.326
202.999, 44.107
203.482, 33.211
203.964, 37.816
204.446, 52.003
204.928, 58.968
205.410, 57.704
205.892, 52.095
206.374, 43.528
206.857, 31.059
207.339, 20.677
207.821, 13.501
208.303, 8.926
208.785, 3.776
209.267, 2.699
209.749, 8.095
210.231, 9.421
210.713, 4.697
211.195, 3.793
211.678, 9.805
212.160, 21.742
212.642, 29.348
213.124, 32.015
213.606, 31.335
214.088, 27.514
214.570, 17.756
215.052, 13.065
215.535, 17.258
216.017, 30.529
216.499, 39.925
216.981, 44.680
217.463, 46.680
217.945, 47.993
218.427, 48.861
218.909, 48.691
219.391, 46.741
219.874, 42.556
220.356, 41.466
220.838, 44.781
221.320, 50.086
221.802, 54.365
222.284, 58.272
222.766, 59.699
223.248, 57.033
223.731, 48.522
224.213, 44.003
224.695, 44.511
225.177, 48.145
225.659, 52.149
226.141, 58.072
226.623, 61.500
227.105, 60.225
227.587, 52.246
228.070, 46.489
228.552, 44.277
229.034, 43.746
229.516, 41.095
229.998, 35.697
230.480, 29.263
230.962, 21.716
231.444, 10.311
231.926, 5.276
232.409, 10.518
232.891, 21.230
233.373, 24.436
233.855, 16.890
234.337, 6.475
234.819, 3.816
235.301, 15.442
235.783, 23.847
236.266, 27.002
236.748, 27.057
237.230, 30.669
237.712, 36.311
238.194, 47.897
238.676, 68.757
239.158, 106.669
239.640, 137.333
240.122, 158.500
240.605, 171.465
241.087, 180.544
241.569, 179.589
242.051, 182.989
242.533, 200.291
243.015, 239.883
243.497, 275.790
243.980, 304.573
244.462, 327.648
244.944, 353.546
245.426, 384.060
245.908, 415.039
246.390, 442.870
246.872, 461.803
247.354, 489.084
247.836, 527.645
248.318, 576.354
248.801, 625.605
249.283, 673.320
249.765, 724.031
250.247, 780.585
250.729, 840.477
251.211, 911.015
251.693, 995.650
252.176, 1092.951
252.658, 1183.915
253.140, 1260.244
253.622, 1341.240
254.104, 1443.538
254.586, 1570.269
255.068, 1709.360
255.550, 1858.805
256.032, 2019.060
256.514, 2184.916
256.997, 2349.453
257.479, 2529.225
257.961, 2741.024
258.443, 2993.308
258.925, 3261.304
259.407, 3545.093
259.889, 3842.291
260.371, 4156.725
260.854, 4483.243
261.336, 4834.289
261.818, 5231.249
262.300, 5685.654
262.782, 6147.846
263.264, 6604.862
263.746, 7061.670
264.228, 7535.601
264.711, 8034.569
265.193, 8543.316
265.675, 9060.248
266.157, 9587.204
266.639, 10104.525
267.121, 10604.385
267.603, 11085.677
268.085, 11534.309
268.567, 11945.261
269.050, 12326.810
269.532, 12690.256
270.014, 13046.719
270.496, 13336.078
270.978, 13538.870
271.460, 13659.352
271.942, 13726.273
272.424, 13739.991
272.906, 13699.794
273.389, 13616.836
273.871, 13503.186
274.353, 13275.830
274.835, 12904.614
275.317, 12403.979
275.799, 11856.852
276.281, 11258.229
276.763, 10633.534
277.246, 9997.799
277.728, 9349.861
278.210, 8720.063
278.692, 8108.693
279.174, 7526.235
279.656, 7006.294
280.138, 6553.542
280.620, 6146.190
281.103, 5765.551
281.585, 5411.869
282.067, 5088.461
282.549, 4799.768
283.031, 4542.101
283.513, 4288.663
283.995, 4037.734
284.477, 3800.262
284.959, 3592.118
285.441, 3412.615
285.924, 3234.126
286.406, 3049.156
286.888, 2859.724
287.370, 2675.069
287.852, 2494.256
288.334, 2320.948
288.816, 2154.889
289.298, 1998.630
289.781, 1860.325
290.263, 1747.503
290.745, 1649.580
291.227, 1539.125
291.709, 1415.019
292.191, 1299.461
292.673, 1215.611
293.155, 1156.716
293.638, 1093.866
294.120, 1016.416
294.602, 935.030
295.084, 871.573
295.566, 826.008
296.048, 786.896
296.530, 745.929
297.012, 704.020
297.494, 663.823
297.977, 623.681
298.459, 587.772
298.941, 566.677
299.423, 558.495
299.905, 547.428
300.387, 518.703
300.869, 479.209
301.351, 440.693
301.833, 403.349
302.316, 371.246
302.798, 352.590
303.280, 345.073
303.762, 336.695
304.244, 314.690
304.726, 287.990
305.208, 270.296
305.690, 267.421
306.172, 269.026
306.655, 263.650
307.137, 253.931
307.619, 249.711
308.101, 258.261
308.583, 274.711
309.065, 294.170
309.547, 316.490
310.030, 340.596
310.512, 363.569
310.994, 387.505
311.476, 417.940
311.958, 456.188
312.440, 502.769
312.922, 557.433
313.404, 617.339
313.886, 691.884
314.369, 788.525
314.851, 904.251
315.333, 1028.802
315.815, 1162.164
316.297, 1301.384
316.779, 1443.852
317.261, 1586.799
317.743, 1739.354
318.225, 1904.651
318.708, 2081.594
319.190, 2265.614
319.672, 2464.734
320.154, 2664.852
320.636, 2856.296
321.118, 3032.076
321.600, 3223.959
322.082, 3454.290
322.565, 3701.948
323.047, 3935.182
323.529, 4139.404
324.011, 4338.965
324.493, 4549.978
324.975, 4784.118
325.457, 4973.342
325.939, 5114.403
326.422, 5206.029
326.904, 5247.025
327.386, 5247.436
327.868, 5184.911
328.350, 5048.318
328.832, 4833.187
329.314, 4586.720
329.796, 4285.009
330.278, 3965.984
330.760, 3664.044
331.243, 3376.261
331.725, 3111.797
332.207, 2872.632
332.689, 2657.888
333.171, 2465.807
333.653, 2297.033
334.135, 2147.722
334.617, 2016.965
335.100, 1904.483
335.582, 1808.275
336.064, 1728.448
336.546, 1664.562
337.028, 1617.148
337.510, 1588.593
337.992, 1572.411
338.474, 1566.739
338.957, 1573.876
339.439, 1580.359
339.921, 1586.259
340.403, 1589.622
340.885, 1583.596
341.367, 1566.378
341.849, 1548.037
342.331, 1541.398
342.813, 1546.428
343.296, 1523.031
343.778, 1464.723
344.260, 1384.474
344.742, 1306.568
345.224, 1230.269
345.706, 1147.407
346.188, 1045.097
346.670, 929.998
347.152, 830.502
347.635, 748.069
348.117, 677.854
348.599, 613.848
349.081, 557.047
349.563, 512.937
350.045, 484.736
350.527, 469.825
351.009, 465.996
351.491, 473.395
351.974, 487.613
352.456, 504.838
352.938, 525.502
353.420, 550.903
353.902, 579.051
354.384, 613.820
354.866, 661.220
355.349, 720.467
355.831, 783.788
356.313, 844.635
356.795, 906.884
357.277, 974.746
357.759, 1046.288
358.241, 1127.352
358.723, 1226.635
359.205, 1340.817
359.688, 1456.291
360.170, 1561.543
360.652, 1668.609
361.134, 1788.047
361.616, 1931.813
362.098, 2072.947
362.580, 2201.579
363.062, 2318.239
363.544, 2429.733
364.027, 2558.763
364.509, 2669.323
364.991, 2742.280
365.473, 2766.239
365.955, 2769.223
366.437, 2746.270
366.919, 2707.403
367.401, 2670.241
367.884, 2628.457
368.366, 2595.733
368.848, 2579.260
369.330, 2586.175
369.812, 2583.522
370.294, 2577.577
370.776, 2557.853
371.258, 2514.552
371.741, 2450.891
372.223, 2357.343
372.705, 2221.099
373.187, 2043.036
373.669, 1885.030
374.151, 1748.840
374.633, 1629.835
375.115, 1522.059
375.597, 1425.316
376.079, 1343.498
376.562, 1278.261
377.044, 1227.362
377.526, 1182.265
378.008, 1141.511
378.490, 1111.314
378.972, 1095.723
379.454, 1094.651
379.936, 1103.443
380.419, 1123.953
380.901, 1151.364
381.383, 1174.822
381.865, 1194.644
382.347, 1218.656
382.829, 1253.878
383.311, 1297.031
383.793, 1340.098
384.276, 1383.720
384.758, 1421.710
385.240, 1452.348
385.722, 1472.306
386.204, 1471.024
386.686, 1444.406
387.168, 1392.894
387.650, 1310.972
388.132, 1199.072
388.615, 1076.147
389.097, 942.616
389.579, 808.731
390.061, 688.436
390.543, 590.140
391.025, 503.372
391.507, 420.393
391.989, 342.577
392.471, 276.980
392.954, 233.380
393.436, 199.232
393.918, 163.899
394.400, 119.327
394.882, 82.170
395.364, 62.746
395.846, 55.164
396.328, 46.015
396.810, 28.768
397.293, 12.263
397.775, 0.199
398.257, 5.939
398.739, 10.928
399.221, 12.724
399.703, 14.472
400.185, 19.972
400.668, 32.898
401.150, 44.791
401.632, 54.191
402.114, 61.078
402.596, 65.846
403.078, 67.699
403.560, 68.323
404.042, 70.182
404.524, 75.351
405.007, 73.316
405.489, 59.115
405.971, 37.977
406.453, 30.184
406.935, 38.347
407.417, 48.740
407.899, 52.544
408.381, 50.139
408.863, 48.711
409.346, 49.170
409.828, 49.681
410.310, 47.072
410.792, 41.903
411.274, 37.143
411.756, 34.359
412.238, 32.899
412.720, 31.545
413.203, 30.307
413.685, 29.228
414.167, 30.064
414.649, 31.014
415.131, 28.227
415.613, 17.451
416.095, 4.908
416.577, 5.411
417.060, 12.995
417.542, 15.703
418.024, 8.505
418.506, 2.092
418.988, 10.733
419.470, 18.894
419.952, 21.010
420.434, 8.241
420.916, 12.138
421.398, 24.516
421.881, 13.247
422.363, 2.353
422.845, 3.773
423.327, 23.229
423.809, 36.669
424.291, 38.037
424.773, 33.707
425.255, 30.609
425.738, 29.424
426.220, 28.705
426.702, 27.379
427.184, 25.746
427.666, 28.382
428.148, 38.737
428.630, 48.503
429.112, 51.530
429.595, 45.823
430.077, 40.747
430.559, 36.887
431.041, 34.165
431.523, 32.182
432.005, 31.031
432.487, 30.276
432.969, 29.931
433.451, 29.884
433.934, 29.383
434.416, 28.489
434.898, 26.977
435.380, 23.014
435.862, 17.778
436.344, 16.039
436.826, 22.165
437.308, 30.960
437.790, 33.744
438.273, 31.067
438.755, 28.820
439.237, 30.686
439.719, 35.477
440.201, 42.173
440.683, 51.824
441.165, 60.682
441.647, 67.306
442.129, 71.376
442.612, 72.138
443.094, 63.748
443.576, 56.474
444.058, 56.863
444.540, 67.317
445.022, 74.931
445.504, 73.187
445.987, 68.898
446.469, 68.704
446.951, 77.948
447.433, 86.189
447.915, 92.034
448.397, 95.741
448.879, 99.237
449.361, 105.242
449.843, 107.573
450.326, 100.086
450.808, 74.777
451.290, 67.692
451.772, 86.866
452.254, 116.812
452.736, 126.575
453.218, 112.955
453.700, 101.556
454.182, 104.695
454.665, 119.187
455.147, 124.376
455.629, 119.470
456.111, 112.857
456.593, 113.337
457.075, 119.207
457.557, 124.176
458.039, 126.144
458.522, 126.864
459.004, 130.271
459.486, 135.347
459.968, 137.406
460.450, 133.027
460.932, 125.093
461.414, 114.504
461.896, 99.959
462.379, 90.039
462.861, 94.808
463.343, 106.862
463.825, 116.030
464.307, 115.284
464.789, 112.283
465.271, 110.737
465.753, 110.734
466.235, 106.431
466.717, 86.335
467.200, 69.038
467.682, 65.704
468.164, 95.546
468.646, 109.788
469.128, 100.996
469.610, 79.176
470.092, 64.613
470.574, 59.131
471.057, 57.050
471.539, 58.064
472.021, 61.979
472.503, 58.862
472.985, 46.636
473.467, 35.042
473.949, 36.765
474.431, 50.488
474.914, 55.044
475.396, 42.743
475.878, 23.488
476.360, 16.379
476.842, 19.980
477.324, 24.059
477.806, 21.684
478.288, 17.594
478.770, 17.934
479.253, 22.789
479.735, 28.597
480.217, 34.688
480.699, 40.704
481.181, 46.077
481.663, 51.397
482.145, 53.510
482.627, 47.798
483.109, 36.166
483.592, 29.297
484.074, 34.785
484.556, 42.462
485.038, 47.014
485.520, 47.355
486.002, 46.157
486.484, 40.913
486.966, 35.015
487.448, 33.814
487.931, 41.053
488.413, 46.031
488.895, 44.948
489.377, 38.577
489.859, 38.722
490.341, 47.735
490.823, 56.757
491.306, 56.986
491.788, 48.718
492.270, 48.718
492.752, 61.775
493.234, 76.373
493.716, 70.541
494.198, 47.836
494.680, 29.094
495.162, 26.622
495.645, 32.331
496.127, 34.519
496.609, 33.040
497.091, 31.802
497.573, 33.913
498.055, 37.888
498.537, 42.277
499.019, 47.722
499.501, 51.484
499.984, 49.856
500.466, 45.540
500.948, 44.581
501.430, 58.568
501.912, 67.139
502.394, 58.415
502.876, 26.493
503.358, 9.916
503.841, 21.172
504.323, 38.771
504.805, 46.060
505.287, 38.107
505.769, 29.312
506.251, 18.761
506.733, 9.586
507.215, 12.670
507.698, 30.839
508.180, 46.486
508.662, 50.081
509.144, 43.217
509.626, 36.101
510.108, 28.452
510.590, 21.844
511.072, 16.815
511.554, 13.878
512.036, 15.423
512.519, 25.260
513.001, 34.995
513.483, 33.531
513.965, 24.176
514.447, 17.220
514.929, 22.894
515.411, 29.076
515.893, 24.718
516.375, 6.731
516.858, 4.252
517.340, 5.369
517.822, 22.023
518.304, 33.143
518.786, 33.511
519.268, 31.829
519.750, 27.609
520.232, 22.010
520.715, 18.479
521.197, 16.435
521.679, 17.636
522.161, 24.614
522.643, 38.231
523.125, 43.221
523.607, 37.300
524.089, 29.025
524.571, 28.560
525.054, 35.133
525.536, 39.423
526.018, 39.849
526.500, 36.692
526.982, 27.299
527.464, 13.441
527.946, 4.237
528.429, 7.918
528.911, 17.392
529.393, 25.853
529.875, 32.976
530.357, 36.464
530.839, 32.236
531.321, 24.869
531.803, 18.954
532.286, 15.504
532.768, 14.063
533.250, 16.005
533.732, 19.620
534.214, 20.743
534.696, 13.457
535.178, 10.391
535.660, 17.415
536.142, 36.121
536.625, 45.502
537.107, 42.570
537.589, 35.009
538.071, 28.774
538.553, 23.933
539.035, 20.390
539.517, 18.434
539.999, 17.447
540.481, 15.790
540.964, 13.609
541.446, 12.862
541.928, 15.338
542.410, 19.620
542.892, 23.013
543.374, 25.608
543.856, 29.493
544.338, 40.479
544.820, 51.392
545.303, 53.440
545.785, 40.075
546.267, 28.926
546.749, 30.387
547.231, 37.934
547.713, 41.032
548.195, 34.807
548.677, 26.902
549.159, 16.863
549.642, 5.238
550.124, 0.860
550.606, 7.271
551.088, 15.872
551.570, 22.870
552.052, 29.116
552.534, 26.858
553.016, 12.297
553.499, 2.979
553.981, 0.866
554.463, 21.572
554.945, 36.221
555.427, 35.225
555.909, 26.547
556.391, 24.831
556.873, 28.490
557.356, 28.399
557.838, 12.072
558.320, 6.956
558.802, 13.577
559.284, 4.792
559.766, 4.180
560.248, 6.705
560.730, 5.408
561.213, 3.030
561.695, 5.424
562.177, 8.146
562.659, 1.730
563.141, 18.458
563.623, 26.952
564.105, 23.274
564.587, 17.407
565.069, 11.523
565.552, 5.617
566.034, 5.632
566.516, 13.320
566.998, 20.797
567.480, 19.078
567.962, 9.697
568.444, 4.997
568.926, 7.667
569.408, 12.805
569.891, 15.924
570.373, 16.612
570.855, 13.731
571.337, 2.251
571.819, 9.604
572.301, 14.972
572.783, 14.399
573.265, 12.154
573.747, 7.372
574.230, 3.496
574.712, 3.281
575.194, 9.834
575.676, 11.773
576.158, 3.588
576.640, 6.752
577.122, 10.898
577.604, 5.786
578.086, 1.511
578.569, 1.007
579.051, 1.452
579.533, 1.738
580.015, 8.951
580.497, 16.244
580.979, 21.750
581.461, 25.781
581.943, 29.432
582.426, 32.683
582.908, 35.439
583.390, 37.807
583.872, 39.523
584.354, 39.830
584.836, 37.767
585.318, 36.579
585.800, 39.341
586.282, 43.956
586.765, 47.058
587.247, 43.610
587.729, 42.711
588.211, 51.226
588.693, 67.168
589.175, 70.915
589.657, 51.964
590.140, 34.761
590.622, 32.411
591.104, 48.476
591.586, 54.266
592.068, 47.670
592.550, 36.470
593.032, 25.198
593.514, 15.171
593.996, 16.493
594.479, 34.603
594.961, 57.637
595.443, 72.451
595.925, 79.184
596.407, 78.118
596.889, 61.285
597.371, 43.173
597.853, 34.274
598.335, 34.358
598.818, 37.951
599.300, 46.074
599.782, 54.702
600.264, 60.979
600.746, 62.099
601.228, 67.719
601.710, 85.233
602.192, 101.558
602.674, 100.136
603.157, 73.063
603.639, 55.696
604.121, 55.591
604.603, 66.370
605.085, 73.595
605.567, 77.440
606.049, 81.188
606.531, 88.016
607.013, 95.285
607.496, 97.196
607.978, 94.072
608.460, 90.820
608.942, 90.829
609.424, 92.150
609.906, 93.128
610.388, 93.609
610.870, 93.612
611.353, 89.694
611.835, 86.690
612.317, 90.198
612.799, 110.914
613.281, 124.360
613.763, 124.205
614.245, 116.101
614.727, 118.371
615.209, 135.287
615.692, 148.133
616.174, 146.769
616.656, 134.665
617.138, 132.414
617.620, 140.265
618.102, 147.778
618.584, 144.729
619.067, 136.109
619.549, 131.721
620.031, 133.451
620.513, 136.832
620.995, 137.718
621.477, 138.081
621.959, 140.589
622.441, 148.875
622.923, 156.314
623.406, 160.052
623.888, 161.583
624.370, 165.503
624.852, 176.555
625.334, 182.913
625.816, 179.391
626.298, 166.946
626.780, 160.157
627.263, 159.624
627.745, 162.150
628.227, 165.677
628.709, 170.409
629.191, 177.814
629.673, 188.191
630.155, 198.351
630.637, 207.091
631.119, 213.274
631.602, 214.598
632.084, 207.500
632.566, 199.669
633.048, 194.048
633.530, 191.071
634.012, 191.283
634.494, 194.458
634.976, 201.399
635.458, 215.267
635.941, 234.638
636.423, 245.211
636.905, 244.831
637.387, 240.024
637.869, 231.845
638.351, 219.962
638.833, 215.512
639.315, 219.182
639.797, 226.213
640.280, 232.431
640.762, 238.388
641.244, 246.221
641.726, 257.785
642.208, 265.253
642.690, 255.668
643.172, 238.984
643.654, 230.849
644.137, 245.569
644.619, 260.866
645.101, 269.623
645.583, 272.670
646.065, 270.005
646.547, 264.629
647.029, 279.495
647.511, 289.499
647.994, 295.013
648.476, 282.058
648.958, 292.742
649.440, 293.517
649.922, 293.734
650.404, 307.350
650.886, 296.444
651.368, 309.795
651.851, 313.329
652.333, 321.399
652.815, 320.030
653.297, 321.789
653.779, 333.270
654.261, 339.421
654.743, 337.116
655.225, 335.621
655.707, 333.573
656.190, 325.260
656.672, 322.382
657.154, 331.477
657.636, 349.695
658.118, 356.976
658.600, 349.625
659.082, 341.120
659.564, 337.402
660.046, 338.085
660.529, 340.562
661.011, 344.780
661.493, 349.281
661.975, 354.427
662.457, 358.998
662.939, 359.535
663.421, 354.216
663.903, 349.717
664.385, 352.408
664.868, 358.264
665.350, 362.357
665.832, 357.293
666.314, 357.214
666.796, 370.963
667.278, 390.145
667.760, 397.448
668.242, 386.765
668.724, 377.063
669.207, 374.299
669.689, 377.514
670.171, 379.527
670.653, 379.286
671.135, 378.389
671.617, 376.663
672.099, 376.054
672.581, 383.294
673.064, 398.082
673.546, 406.388
674.028, 389.512
674.510, 367.373
674.992, 358.303
675.474, 369.812
675.956, 382.416
676.438, 396.573
676.920, 407.042
677.403, 407.806
677.885, 390.581
678.367, 382.445
678.849, 387.914
679.331, 400.625
679.813, 409.600
680.295, 414.850
680.778, 419.796
681.260, 425.500
681.742, 431.487
682.224, 438.469
682.706, 445.724
683.188, 450.341
683.670, 447.745
684.152, 444.249
684.634, 444.331
685.117, 447.794
685.599, 449.633
686.081, 445.796
686.563, 442.769
687.045, 443.847
687.527, 450.324
688.009, 453.952
688.491, 449.658
688.973, 442.495
689.456, 449.171
689.938, 450.807
690.420, 448.947
690.902, 433.522
691.384, 436.926
691.866, 432.479
692.348, 427.086
692.830, 431.084
693.312, 422.295
693.795, 419.099
694.277, 410.346
694.759, 398.631
695.241, 388.937
695.723, 384.551
696.205, 379.012
696.687, 371.186
697.169, 361.325
697.652, 348.359
698.134, 329.440
698.616, 316.923
699.098, 320.071
699.580, 334.727
700.062, 339.975
700.544, 335.902
701.026, 328.674
701.508, 321.471
701.991, 314.703
702.473, 309.316
702.955, 305.582
703.437, 300.481
703.919, 291.975
704.401, 281.762
704.883, 270.918
705.365, 254.688
705.847, 247.058
706.330, 253.618
706.812, 263.581
707.294, 263.059
707.776, 250.236
708.258, 240.037
708.740, 235.531
709.222, 233.046
709.705, 225.921
710.187, 215.280
710.669, 205.198
711.151, 197.042
711.633, 190.430
712.115, 184.142
712.597, 178.986
713.079, 177.403
713.561, 187.188
714.044, 193.621
714.526, 189.360
715.008, 175.612
715.490, 164.544
715.972, 156.344
716.454, 150.246
716.936, 146.377
717.418, 144.486
717.901, 143.131
718.383, 142.345
718.865, 139.681
719.347, 130.078
719.829, 118.188
720.311, 112.831
720.793, 115.985
721.275, 117.082
721.757, 107.554
722.240, 94.566
722.722, 84.551
723.204, 81.844
723.686, 76.455
724.168, 65.545
724.650, 53.751
725.132, 48.526
725.614, 52.546
726.096, 44.763
726.579, 17.653
727.061, 14.147
727.543, 24.356
728.025, 17.753
728.507, 12.136
728.989, 15.166
729.471, 20.587
729.953, 23.966
730.435, 25.468
730.918, 25.484
731.400, 18.869
731.882, 16.449
732.364, 23.403
732.846, 37.882
733.328, 51.252
733.810, 64.227
734.292, 74.377
734.775, 80.255
735.257, 82.391
735.739, 83.861
736.221, 84.570
736.703, 85.077
737.185, 85.755
737.667, 86.520
738.149, 86.632
738.631, 86.009
739.114, 87.366
739.596, 91.953
740.078, 99.212
740.560, 110.081
741.042, 129.223
741.524, 138.364
742.006, 133.166
742.489, 123.544
742.971, 118.930
743.453, 119.922
743.935, 115.858
744.417, 104.418
744.899, 92.979
745.381, 95.473
745.863, 103.752
746.345, 97.459
746.828, 61.439
747.310, 32.137
747.792, 40.657
748.274, 67.035
748.756, 82.321
749.238, 75.491
749.720, 62.190
750.202, 37.326
750.684, 10.186
751.167, 5.092
751.649, 25.123
752.131, 43.343
752.613, 53.216
753.095, 55.279
753.577, 46.364
754.059, 29.183
754.541, 17.223
755.023, 25.132
755.506, 33.462
755.988, 24.703
756.470, 2.894
756.952, 14.213
757.434, 10.893
757.916, 13.515
758.398, 35.781
758.880, 74.963
759.362, 89.032
759.845, 71.125
760.327, 54.498
760.809, 61.637
761.291, 85.494
761.773, 100.997
762.255, 107.859
762.737, 109.193
763.219, 98.986
763.702, 89.883
764.184, 95.892
764.666, 119.539
765.148, 143.791
765.630, 168.105
766.112, 187.296
766.594, 196.575
767.076, 191.899
767.558, 194.801
768.041, 206.164
768.523, 221.921
769.005, 238.869
769.487, 256.947
769.969, 276.028
770.451, 295.604
770.933, 316.765
771.416, 345.524
771.898, 374.440
772.380, 391.946
772.862, 385.663
773.344, 388.272
773.826, 416.783
774.308, 453.817
774.790, 479.114
775.272, 483.004
775.755, 505.923
776.237, 556.205
776.719, 618.129
777.201, 670.315
777.683, 713.700
778.165, 749.805
778.647, 774.800
779.129, 804.320
779.612, 852.671
780.094, 915.425
780.576, 986.492
781.058, 1063.773
781.540, 1150.121
782.022, 1251.167
782.504, 1359.896
782.986, 1463.038
783.468, 1558.144
783.951, 1657.101
784.433, 1761.499
784.915, 1871.908
785.397, 1991.062
785.879, 2118.890
786.361, 2253.748
786.843, 2386.493
787.325, 2530.393
787.807, 2701.117
788.290, 2892.086
788.772, 3090.597
789.254, 3279.434
789.736, 3484.741
790.218, 3718.790
790.700, 3972.845
791.182, 4221.806
791.664, 4459.224
792.146, 4708.914
792.629, 4981.075
793.111, 5267.783
793.593, 5564.302
794.075, 5866.775
794.557, 6170.776
795.039, 6470.393
795.521, 6768.794
796.003, 7064.332
796.485, 7357.335
796.968, 7650.278
797.450, 7959.117
797.932, 8249.972
798.414, 8517.639
798.896, 8760.057
799.378, 8967.829
799.860, 9142.473
800.343, 9292.953
800.825, 9425.755
801.307, 9536.592
801.789, 9604.156
802.271, 9633.886
802.753, 9663.795
803.235, 9737.895
803.717, 9802.869
804.199, 9815.241
804.682, 9769.712
805.164, 9736.406
805.646, 9711.444
806.128, 9708.128
806.610, 9741.664
807.092, 9812.137
807.574, 9854.066
808.056, 9864.959
808.539, 9881.688
809.021, 9931.090
809.503, 10004.145
809.985, 10086.038
810.467, 10176.297
810.949, 10285.415
811.431, 10437.268
811.913, 10595.876
812.395, 10736.123
812.878, 10850.842
813.360, 10977.673
813.842, 11109.091
814.324, 11267.865
814.806, 11477.566
815.288, 11733.111
815.770, 11969.392
816.252, 12182.320
816.734, 12407.806
817.217, 12652.860
817.699, 12935.406
818.181, 13283.397
818.663, 13704.783
819.145, 14142.850
819.627, 14546.313
820.109, 14978.607
820.591, 15476.196
821.073, 16041.267
821.556, 16635.730
822.038, 17262.156
822.520, 17916.963
823.002, 18597.064
823.484, 19315.129
823.966, 20078.645
824.448, 20897.873
824.930, 21770.264
825.413, 22735.225
825.895, 23734.600
826.377, 24731.199
826.859, 25725.807
827.341, 26711.277
827.823, 27671.387
828.305, 28663.607
828.787, 29735.418
829.269, 30902.889
829.752, 32047.670
830.234, 33181.492
830.716, 34266.621
831.198, 35273.617
831.680, 36212.941
832.162, 37108.012
832.644, 37972.453
833.127, 38742.746
833.609, 39381.133
834.091, 39923.805
834.573, 40394.055
835.055, 40810.375
835.537, 41083.398
836.019, 41207.504
836.501, 41196.652
836.983, 41057.812
837.466, 40791.773
837.948, 40400.992
838.430, 39888.148
838.912, 39279.922
839.394, 38577.328
839.876, 37802.039
840.358, 36980.797
840.840, 36117.078
841.322, 35203.379
841.805, 34219.520
842.287, 33197.637
842.769, 32154.529
843.251, 31082.115
843.733, 30036.539
844.215, 29018.170
844.697, 28021.088
845.179, 27031.986
845.661, 26059.957
846.144, 25137.406
846.626, 24261.635
847.108, 23414.898
847.590, 22596.549
848.072, 21797.287
848.554, 21008.738
849.036, 20226.771
849.518, 19483.777
850.000, 18784.322
850.483, 18110.916
850.965, 17449.037
851.447, 16802.473
851.929, 16155.674
852.411, 15509.631
852.893, 14879.147
853.375, 14263.564
853.857, 13678.449
854.340, 13127.879
854.822, 12612.155
855.304, 12106.838
855.786, 11608.989
856.268, 11124.972
856.750, 10652.977
857.232, 10196.094
857.714, 9778.049
858.196, 9396.650
858.679, 9019.994
859.161, 8601.410
859.643, 8186.741
860.125, 7847.099
860.607, 7572.034
861.089, 7299.666
861.571, 6992.852
862.054, 6690.021
862.536, 6400.939
863.018, 6130.016
863.500, 5884.476
863.982, 5667.332
864.464, 5470.533
864.946, 5304.458
865.428, 5150.071
865.910, 4946.088
866.393, 4705.471
866.875, 4491.996
867.357, 4368.567
867.839, 4252.468
868.321, 4086.732
868.803, 3884.697
869.285, 3708.711
869.767, 3573.340
870.250, 3448.848
870.732, 3324.113
871.214, 3204.593
871.696, 3117.202
872.178, 3057.657
872.660, 2982.574
873.142, 2862.443
873.624, 2731.135
874.106, 2619.677
874.589, 2522.857
875.071, 2431.989
875.553, 2345.729
876.035, 2260.913
876.517, 2175.146
876.999, 2094.343
877.481, 2030.580
877.963, 1983.641
878.445, 1931.704
878.928, 1871.346
879.410, 1805.110
879.892, 1724.990
880.374, 1642.680
880.856, 1579.884
881.338, 1556.225
881.820, 1529.411
882.302, 1483.557
882.784, 1429.128
883.267, 1378.365
883.749, 1333.848
884.231, 1277.971
884.713, 1204.619
885.195, 1135.452
885.677, 1106.125
886.159, 1100.848
886.641, 1079.616
887.123, 1033.113
887.606, 983.517
888.088, 942.951
888.570, 907.240
889.052, 874.790
889.534, 848.813
890.016, 815.550
890.498, 772.178
890.981, 725.929
891.463, 679.275
891.945, 635.132
892.427, 601.484
892.909, 578.580
893.391, 563.177
893.873, 562.508
894.355, 560.715
894.837, 545.057
895.320, 513.528
895.802, 473.258
896.284, 412.217
896.766, 362.278
897.248, 344.045
897.730, 351.647
898.212, 347.198
898.694, 330.564
899.177, 306.730
899.659, 269.507
900.141, 232.501
900.623, 210.439
901.105, 200.720
901.587, 187.469
902.069, 163.622
902.551, 138.346
903.033, 110.149
903.516, 83.292
903.998, 76.703
904.480, 89.806
904.962, 93.786
905.444, 72.341
905.926, 44.061
906.408, 31.685
906.890, 29.936
907.372, 27.343
907.855, 19.184
908.337, 11.306
908.819, 3.447
909.301, 3.139
909.783, 5.550
910.265, 3.056
910.747, 5.096
911.229, 13.542
911.711, 25.597
912.194, 40.082
912.676, 55.209
913.158, 67.963
913.640, 77.834
914.122, 85.560
914.604, 94.171
915.086, 98.587
915.568, 92.987
916.050, 73.605
916.533, 65.569
917.015, 69.848
917.497, 79.450
917.979, 92.032
918.461, 103.976
918.943, 106.344
919.425, 98.985
919.907, 97.557
920.390, 118.592
920.872, 137.667
921.354, 142.867
921.836, 134.725
922.318, 120.696
922.800, 98.626
923.282, 85.120
923.764, 96.132
924.247, 115.989
924.729, 115.588
925.211, 99.083
925.693, 80.556
926.175, 57.127
926.657, 42.985
927.139, 52.129
927.621, 72.617
928.104, 77.465
928.586, 61.745
929.068, 55.839
929.550, 69.322
930.032, 88.210
930.514, 90.741
930.996, 82.474
931.478, 74.672
931.960, 72.461
932.443, 67.033
932.925, 48.981
933.407, 29.982
933.889, 23.348
934.371, 34.654
934.853, 32.357
935.335, 12.607
935.817, 7.730
936.299, 9.172
936.782, 0.910
937.264, 1.314
937.746, 3.904
938.228, 13.477
938.710, 32.990
939.192, 49.885
939.674, 55.037
940.156, 49.157
940.638, 51.740
941.121, 63.725
941.603, 78.154
942.085, 93.244
942.567, 107.237
943.049, 117.235
943.531, 123.505
944.013, 126.699
944.495, 122.413
944.978, 120.744
945.460, 128.401
945.942, 139.778
946.424, 142.369
946.906, 134.219
947.388, 132.015
947.870, 140.068
948.352, 152.637
948.834, 163.940
949.317, 173.947
949.799, 182.726
950.281, 190.880
950.763, 196.103
951.245, 195.606
951.727, 193.529
952.209, 191.882
952.692, 189.697
953.174, 196.818
953.656, 214.545
954.138, 229.993
954.620, 229.458
955.102, 221.853
955.584, 216.663
956.066, 214.800
956.548, 219.869
957.031, 244.277
957.513, 263.220
957.995, 266.283
958.477, 257.560
958.959, 255.593
959.441, 260.356
959.923, 268.210
960.405, 280.240
960.888, 291.268
961.370, 290.996
961.852, 286.293
962.334, 290.109
962.816, 319.791
963.298, 339.059
963.780, 342.643
964.262, 336.881
964.744, 326.708
965.227, 313.005
965.709, 307.782
966.191, 313.188
966.673, 323.468
967.155, 335.976
967.637, 349.208
968.119, 363.365
968.601, 380.008
969.083, 385.785
969.566, 372.428
970.048, 362.268
970.530, 369.300
971.012, 388.765
971.494, 399.694
971.976, 402.905
972.458, 403.636
972.940, 405.662
973.422, 406.213
973.905, 402.587
974.387, 395.986
974.869, 389.918
975.351, 380.735
975.833, 382.135
976.315, 400.071
976.797, 422.093
977.279, 427.746
977.761, 421.331
978.244, 412.482
978.726, 402.569
979.208, 394.877
979.690, 393.604
980.172, 394.568
980.654, 394.505
981.136, 392.694
981.619, 389.771
982.101, 385.089
982.583, 380.017
983.065, 374.778
983.547, 370.927
984.029, 370.959
984.511, 374.210
984.993, 378.267
985.475, 384.261
985.958, 388.460
986.440, 391.364
986.922, 392.107
987.404, 386.917
987.886, 375.319
988.368, 368.007
988.850, 370.413
989.332, 372.580
989.815, 361.019
990.297, 343.507
990.779, 331.252
991.261, 329.930
991.743, 325.370
992.225, 312.196
992.707, 300.464
993.189, 300.873
993.671, 311.324
994.154, 313.757
994.636, 307.614
995.118, 301.809
995.600, 304.133
996.082, 308.439
996.564, 311.431
997.046, 312.587
997.528, 311.637
998.010, 307.316
998.493, 303.062
998.975, 299.963
999.457, 297.899
999.939, 296.652
1000.421, 296.077
1000.903, 296.002
1001.385, 297.000
1001.867, 296.478
1002.349, 292.670
1002.832, 287.127
1003.314, 281.488
1003.796, 275.839
1004.278, 268.878
1004.760, 259.801
1005.242, 252.005
1005.724, 250.106
1006.206, 250.174
1006.689, 245.390
1007.171, 236.691
1007.653, 231.985
1008.135, 238.553
1008.617, 243.086
1009.099, 240.847
1009.581, 236.004
1010.063, 241.529
1010.545, 255.250
1011.028, 261.185
1011.510, 252.196
1011.992, 242.419
1012.474, 243.004
1012.956, 247.998
1013.438, 251.512
1013.920, 254.317
1014.402, 251.264
1014.885, 241.326
1015.367, 230.332
1015.849, 220.679
1016.331, 213.337
1016.813, 214.511
1017.295, 222.628
1017.777, 226.889
1018.259, 218.934
1018.741, 209.600
1019.224, 202.146
1019.706, 196.290
1020.188, 191.708
1020.670, 188.831
1021.152, 189.606
1021.634, 194.139
1022.116, 202.217
1022.598, 221.147
1023.081, 239.583
1023.563, 241.748
1024.045, 217.440
1024.527, 202.373
1025.009, 203.048
1025.491, 205.761
1025.973, 200.541
1026.455, 190.048
1026.938, 189.452
1027.420, 196.533
1027.902, 200.148
1028.384, 190.776
1028.866, 180.473
1029.348, 175.579
1029.830, 174.099
1030.312, 171.129
1030.794, 165.914
1031.276, 163.484
1031.759, 165.060
1032.241, 167.383
1032.723, 165.570
1033.205, 162.467
1033.687, 163.817
1034.169, 172.005
1034.651, 174.778
1035.133, 163.298
1035.616, 152.958
1036.098, 151.313
1036.580, 156.261
1037.062, 157.267
1037.544, 154.558
1038.026, 149.247
1038.508, 136.254
1038.990, 127.168
1039.473, 136.481
1039.955, 152.108
1040.437, 152.789
1040.919, 131.242
1041.401, 114.015
1041.883, 101.774
1042.365, 97.746
1042.847, 113.494
1043.329, 136.165
1043.812, 142.245
1044.294, 130.565
1044.776, 119.773
1045.258, 112.598
1045.740, 116.348
1046.222, 117.434
1046.704, 116.077
1047.186, 104.727
1047.668, 106.333
1048.151, 103.837
1048.633, 92.866
1049.115, 106.896
1049.597, 115.609
1050.079, 117.321
1050.561, 107.245
1051.043, 77.159
1051.525, 67.260
1052.008, 82.375
1052.490, 98.767
1052.972, 95.007
1053.454, 82.103
1053.936, 80.386
1054.418, 87.806
1054.900, 93.547
1055.382, 93.854
1055.865, 91.091
1056.347, 85.207
1056.829, 77.451
1057.311, 68.014
1057.793, 57.823
1058.275, 56.485
1058.757, 67.074
1059.239, 76.204
1059.721, 70.703
1060.203, 61.125
1060.686, 54.986
1061.168, 52.597
1061.650, 60.409
1062.132, 82.402
1062.614, 94.962
1063.096, 81.553
1063.578, 59.121
1064.060, 54.354
1064.543, 60.959
1065.025, 65.965
1065.507, 64.282
1065.989, 61.677
1066.471, 57.240
1066.953, 54.401
1067.435, 59.422
1067.917, 68.088
1068.400, 68.038
1068.882, 59.672
1069.364, 53.302
1069.846, 48.830
1070.328, 44.206
1070.810, 46.165
1071.292, 54.050
1071.774, 57.566
1072.256, 55.927
1072.739, 55.670
1073.221, 59.014
1073.703, 61.562
1074.185, 55.539
1074.667, 46.812
1075.149, 42.668
1075.631, 44.774
1076.113, 47.189
1076.596, 37.875
1077.078, 48.729
1077.560, 54.652
1078.042, 55.920
1078.524, 38.646
1079.006, 45.330
1079.488, 42.476
1079.970, 44.414
1080.453, 40.833
1080.935, 32.751
1081.417, 26.416
1081.899, 30.796
1082.381, 46.254
1082.863, 52.555
1083.345, 48.375
1083.827, 40.690
1084.309, 32.498
1084.792, 25.163
1085.274, 18.853
1085.756, 14.250
1086.238, 14.548
1086.720, 22.222
1087.202, 26.320
1087.684, 23.973
1088.166, 18.303
1088.648, 11.656
1089.131, 5.534
1089.613, 2.929
1090.095, 5.136
1090.577, 6.995
1091.059, 7.492
1091.541, 7.375
1092.023, 5.866
1092.505, 4.363
1092.988, 10.668
1093.470, 22.717
1093.952, 31.554
1094.434, 31.243
1094.916, 29.488
1095.398, 29.845
1095.880, 30.477
1096.362, 29.485
1096.844, 26.835
1097.327, 21.736
1097.809, 13.957
1098.291, 8.707
1098.773, 11.072
1099.255, 16.882
1099.737, 24.787
1100.219, 33.341
1100.701, 36.008
1101.183, 29.112
1101.666, 27.280
1102.148, 34.256
1102.630, 43.424
1103.112, 45.044
1103.594, 43.172
1104.076, 46.426
1104.558, 57.050
1105.040, 59.151
1105.523, 37.138
1106.005, 23.277
1106.487, 33.745
1106.969, 57.969
1107.451, 63.504
1107.933, 53.886
1108.415, 42.212
1108.897, 30.486
1109.380, 22.946
1109.862, 25.191
1110.344, 30.177
1110.826, 32.276
1111.308, 31.424
1111.790, 27.990
1112.272, 22.093
1112.754, 16.618
1113.236, 12.566
1113.719, 10.312
1114.201, 11.850
1114.683, 15.030
1115.165, 14.794
1115.647, 9.938
1116.129, 4.891
1116.611, 0.606
1117.093, 2.829
1117.575, 4.773
1118.058, 15.993
1118.540, 24.046
1119.022, 28.245
1119.504, 28.445
1119.986, 20.214
1120.468, 17.699
1120.950, 26.698
1121.432, 38.690
1121.915, 37.353
1122.397, 27.926
1122.879, 24.880
1123.361, 34.219
1123.843, 31.685
1124.325, 16.639
1124.807, 49.789
1125.289, 26.759
1125.771, 31.310
1126.254, 7.150
1126.736, 80.108
1127.218, 126.790
1127.700, 65.689
1128.182, 0.400
1128.664, 17.847
1129.146, 13.116
1129.628, 12.067
1130.110, 15.054
1130.593, 17.249
1131.075, 18.645
1131.557, 20.795
1132.039, 29.039
1132.521, 34.306
1133.003, 24.027
1133.485, 6.328
1133.967, 1.601
1134.450, 14.600
1134.932, 24.096
1135.414, 28.124
1135.896, 28.718
1136.378, 22.982
1136.860, 18.171
1137.342, 28.282
1137.824, 51.144
1138.307, 56.601
1138.789, 31.148
1139.271, 14.185
1139.753, 15.279
1140.235, 25.957
1140.717, 36.607
1141.199, 45.727
1141.681, 49.560
1142.163, 46.896
1142.646, 44.053
1143.128, 40.870
1143.610, 40.382
1144.092, 44.536
1144.574, 51.697
1145.056, 59.904
1145.538, 66.961
1146.020, 64.304
1146.502, 43.055
1146.985, 27.063
1147.467, 32.389
1147.949, 39.999
1148.431, 35.703
1148.913, 21.919
1149.395, 25.414
1149.877, 43.461
1150.359, 56.444
1150.842, 52.124
1151.324, 42.240
1151.806, 22.430
1152.288, 6.536
1152.770, 15.640
1153.252, 52.987
1153.734, 64.038
1154.216, 46.903
1154.698, 31.034
1155.181, 44.034
1155.663, 60.810
1156.145, 63.750
1156.627, 55.486
1157.109, 44.501
1157.591, 28.174
1158.073, 28.289
1158.555, 50.651
1159.037, 68.602
1159.520, 45.352
1160.002, 13.649
1160.484, 7.119
1160.966, 25.911
1161.448, 41.262
1161.930, 53.013
1162.412, 57.488
1162.894, 51.683
1163.377, 44.478
1163.859, 49.015
1164.341, 58.202
1164.823, 63.097
1165.305, 62.139
1165.787, 57.883
1166.269, 49.245
1166.751, 41.220
1167.234, 35.041
1167.716, 31.448
1168.198, 33.799
1168.680, 39.171
1169.162, 42.362
1169.644, 42.028
1170.126, 38.689
1170.608, 28.705
1171.090, 23.711
1171.573, 33.891
1172.055, 51.702
1172.537, 55.880
1173.019, 50.367
1173.501, 45.967
1173.983, 47.258
1174.465, 49.000
1174.947, 49.975
1175.430, 51.717
1175.912, 57.176
1176.394, 64.356
1176.876, 62.734
1177.358, 54.353
1177.840, 49.264
1178.322, 54.872
1178.804, 60.915
1179.286, 64.540
1179.769, 67.681
1180.251, 73.985
1180.733, 82.047
1181.215, 83.350
1181.697, 77.948
1182.179, 72.015
1182.661, 69.468
1183.143, 66.550
1183.625, 58.373
1184.108, 49.291
1184.590, 45.553
1185.072, 46.341
1185.554, 48.245
1186.036, 48.701
1186.518, 48.243
1187.000, 50.476
1187.482, 50.363
1187.965, 43.475
1188.447, 33.206
1188.929, 29.917
1189.411, 32.748
1189.893, 33.309
1190.375, 29.402
1190.857, 26.450
1191.339, 29.449
1191.822, 33.635
1192.304, 35.301
1192.786, 35.308
1193.268, 39.086
1193.750, 46.243
1194.232, 50.758
1194.714, 50.777
1195.196, 47.716
1195.678, 39.608
1196.161, 31.300
1196.643, 26.698
1197.125, 25.638
1197.607, 25.882
1198.089, 27.340
1198.571, 27.275
1199.053, 22.472
1199.535, 19.895
1200.017, 30.388
1200.500, 41.662
1200.982, 39.365
1201.464, 22.284
1201.946, 13.493
1202.428, 12.991
1202.910, 17.960
1203.392, 32.758
1203.874, 45.179
1204.357, 41.593
1204.839, 32.543
1205.321, 32.988
1205.803, 45.592
1206.285, 50.968
1206.767, 48.949
1207.249, 46.469
1207.731, 47.750
1208.214, 50.506
1208.696, 55.252
1209.178, 59.351
1209.660, 57.587
1210.142, 48.282
1210.624, 46.279
1211.106, 52.116
1211.588, 58.794
1212.070, 62.430
1212.552, 63.385
1213.035, 59.267
1213.517, 53.391
1213.999, 54.212
1214.481, 63.229
1214.963, 64.657
1215.445, 56.697
1215.927, 49.411
1216.409, 52.749
1216.892, 58.304
1217.374, 58.980
1217.856, 56.829
1218.338, 58.661
1218.820, 64.936
1219.302, 71.051
1219.784, 76.857
1220.266, 78.141
1220.749, 66.225
1221.231, 52.709
1221.713, 44.838
1222.195, 42.690
1222.677, 48.047
1223.159, 61.470
1223.641, 68.181
1224.123, 64.896
1224.605, 59.264
1225.088, 55.126
1225.570, 53.526
1226.052, 57.957
1226.534, 65.751
1227.016, 66.507
1227.498, 60.229
1227.980, 51.711
1228.462, 41.849
1228.944, 31.620
1229.427, 16.787
1229.909, 6.481
1230.391, 10.261
1230.873, 24.891
1231.355, 35.347
1231.837, 41.651
1232.319, 42.271
1232.801, 35.541
1233.284, 28.176
1233.766, 23.536
1234.248, 21.788
1234.730, 23.174
1235.212, 27.357
1235.694, 35.387
1236.176, 45.896
1236.658, 44.671
1237.141, 20.941
1237.623, 3.333
1238.105, 17.881
1238.587, 37.565
1239.069, 42.574
1239.551, 35.183
1240.033, 30.074
1240.515, 26.663
1240.997, 20.644
1241.479, 6.734
1241.962, 0.709
1242.444, 14.994
1242.926, 30.985
1243.408, 31.151
1243.890, 18.460
1244.372, 7.831
1244.854, 0.397
1245.336, 4.014
1245.819, 0.392
1246.301, 4.191
1246.783, 5.994
1247.265, 9.574
1247.747, 18.720
1248.229, 31.820
1248.711, 29.542
1249.193, 23.590
1249.676, 10.575
1250.158, 34.408
1250.640, 49.301
1251.122, 55.741
1251.604, 28.376
1252.086, 44.107
1252.568, 51.221
1253.050, 47.835
1253.532, 36.388
1254.015, 24.148
1254.497, 6.263
1254.979, 1.314
1255.461, 15.262
1255.943, 31.949
1256.425, 41.008
1256.907, 43.127
1257.389, 36.145
1257.871, 23.799
1258.354, 15.813
1258.836, 19.606
1259.318, 20.948
1259.800, 19.362
1260.282, 15.829
1260.764, 6.379
1261.246, 1.375
1261.728, 10.414
1262.211, 32.615
1262.693, 42.297
1263.175, 30.104
1263.657, 18.696
1264.139, 8.045
1264.621, 1.231
1265.103, 3.542
1265.585, 8.744
1266.068, 11.345
1266.550, 11.200
1267.032, 7.349
1267.514, 2.567
1267.996, 4.977
1268.478, 1.184
1268.960, 7.553
1269.442, 7.404
1269.924, 5.294
1270.407, 1.755
1270.889, 0.347
1271.371, 8.423
1271.853, 28.580
1272.335, 31.458
1272.817, 16.279
1273.299, 3.364
1273.781, 6.969
1274.264, 16.408
1274.746, 23.048
1275.228, 25.792
1275.710, 22.593
1276.192, 13.699
1276.674, 6.247
1277.156, 0.875
1277.638, 0.020
1278.120, 6.820
1278.603, 3.740
1279.085, 0.000
##END=



