##NAMES=Ferroalluaudite
##RRUFFID=R100070
##IDEAL CHEMISTRY=NaFe^2+^Fe^3+^_2_(PO_4_)_3_
##LOCALITY=Rapid Creek area, Yukon, Canada
##OWNER=RRUFF
##SOURCE=Royal Ontario Museum
##DESCRIPTION=Black radiating fibrous masses associated with marićite
##STATUS=The identification of this mineral is confirmed by single-crystal X-ray diffraction and chemical analysis.
##URL=rruff.info/R100070
##MEASURED CHEMISTRY=(Na_0.90_Ca_0.15_)(Fe^2+^_0.47_Mg_0.34_Mn^2+^_0.17_)_Σ=0.98_Fe^3+^_2.00_P_2.96_O_12_
178.2374, 0.0000000E+00
178.7195, 6.4099999E-04
179.2017, 1.831726
179.6838, 5.713226
180.1659, 9.068085
180.6480, 7.206879
181.1301, 2.613739
181.6122, 0.3438420
182.0944, 0.3706970
182.5765, 2.792145
183.0586, 3.285431
183.5407, 1.869751
184.0228, 0.7084660
184.5049, 2.202759
184.9871, 5.700928
185.4692, 8.798157
185.9513, 10.52530
186.4334, 11.44922
186.9155, 13.19961
187.3976, 15.86917
187.8798, 18.21667
188.3619, 19.13544
188.8440, 18.67670
189.3261, 17.02249
189.8082, 13.16458
190.2903, 8.196320
190.7725, 6.502716
191.2546, 8.559387
191.7367, 11.22537
192.2188, 10.00015
192.7009, 5.138214
193.1830, 1.801605
193.6652, 2.414215
194.1473, 6.361328
194.6294, 10.41797
195.1115, 15.04504
195.5936, 18.31021
196.0757, 16.18161
196.5579, 8.391876
197.0400, 2.578308
197.5221, 2.708679
198.0042, 8.380127
198.4863, 12.27805
198.9684, 14.13126
199.4506, 14.94522
199.9327, 16.29730
200.4148, 18.34607
200.8969, 19.71869
201.3790, 19.58237
201.8611, 18.41348
202.3433, 18.05856
202.8254, 18.54126
203.3075, 19.22900
203.7896, 17.46292
204.2717, 12.53757
204.7538, 9.942810
205.2360, 12.33447
205.7181, 21.15643
206.2002, 25.02176
206.6823, 22.33020
207.1644, 16.62930
207.6465, 14.90976
208.1287, 18.40820
208.6108, 21.65793
209.0929, 21.62482
209.5750, 17.30469
210.0571, 15.61884
210.5392, 17.56137
211.0214, 21.25519
211.5035, 22.80035
211.9856, 21.62070
212.4677, 19.66406
212.9498, 17.62082
213.4319, 15.79385
213.9140, 14.56311
214.3962, 14.96027
214.8783, 16.10172
215.3604, 15.86594
215.8425, 13.93359
216.3246, 11.32956
216.8067, 7.974884
217.2889, 2.868683
217.7710, 0.7636410
218.2531, 2.834442
218.7352, 7.366547
219.2173, 10.42914
219.6994, 11.97217
220.1816, 12.13358
220.6637, 10.62048
221.1458, 6.357269
221.6279, 3.533234
222.1100, 2.451019
222.5921, 2.728912
223.0743, 3.634521
223.5564, 6.084076
224.0385, 7.555817
224.5206, 6.396149
225.0027, 0.6586000
225.4848, 2.445557
225.9670, 2.064178
226.4491, 0.7842710
226.9312, 3.732269
227.4133, 7.486694
227.8954, 10.16360
228.3775, 10.69128
228.8597, 8.180115
229.3418, 5.615082
229.8239, 2.624847
230.3060, 0.3187260
230.7881, 1.763489
231.2702, 1.254425
231.7524, 4.6204001E-02
232.2345, 1.685822
232.7166, 4.058228
233.1987, 6.064392
233.6808, 7.910095
234.1629, 9.403503
234.6451, 9.901398
235.1272, 8.696381
235.6093, 7.558685
236.0914, 7.513794
236.5735, 9.738983
237.0556, 10.09399
237.5378, 7.347595
238.0199, 3.111420
238.5020, 1.724091
238.9841, 4.868988
239.4662, 7.998474
239.9483, 9.047150
240.4305, 6.356049
240.9126, 5.559784
241.3947, 7.731140
241.8768, 11.48032
242.3589, 13.42508
242.8410, 12.83847
243.3232, 11.08655
243.8053, 8.470459
244.2874, 3.849121
244.7695, 1.267487
245.2516, 1.369598
245.7337, 3.154816
246.2159, 4.701263
246.6980, 6.603607
247.1801, 7.353729
247.6622, 5.724213
248.1443, 0.5855100
248.6264, 2.398026
249.1086, 2.324493
249.5907, 10.40166
250.0728, 15.16328
250.5549, 14.79862
251.0370, 14.19324
251.5191, 15.55624
252.0013, 20.43056
252.4834, 22.78995
252.9655, 20.63338
253.4476, 16.43916
253.9297, 15.42650
254.4118, 18.99292
254.8940, 23.27005
255.3761, 27.21405
255.8582, 31.16556
256.3403, 33.29625
256.8224, 32.91393
257.3046, 31.32391
257.7867, 30.63757
258.2688, 31.13704
258.7509, 32.05243
259.2330, 33.35989
259.7151, 35.14523
260.1973, 35.29785
260.6794, 33.03510
261.1615, 29.96805
261.6436, 28.43353
262.1257, 28.74162
262.6078, 29.87323
263.0900, 32.10574
263.5721, 35.83710
264.0542, 36.60355
264.5363, 33.20721
265.0184, 28.27985
265.5005, 25.08241
265.9827, 24.06754
266.4648, 23.55057
266.9469, 23.18161
267.4290, 22.96831
267.9111, 22.55368
268.3932, 21.39558
268.8754, 20.65030
269.3575, 22.01862
269.8396, 26.67467
270.3217, 30.42921
270.8038, 32.02791
271.2859, 31.86761
271.7681, 29.05974
272.2502, 22.61964
272.7323, 15.58238
273.2144, 11.17645
273.6965, 9.671021
274.1786, 9.200546
274.6608, 9.570374
275.1429, 10.67586
275.6250, 12.01476
276.1071, 13.91452
276.5892, 15.23273
277.0714, 14.22508
277.5535, 10.44141
278.0356, 8.586960
278.5177, 10.14038
278.9998, 14.13068
279.4819, 16.77829
279.9641, 18.13000
280.4462, 18.05128
280.9283, 15.36269
281.4104, 9.924896
281.8925, 7.352905
282.3746, 9.616684
282.8568, 14.42021
283.3389, 14.42142
283.8210, 9.206436
284.3031, 4.236084
284.7852, 4.083633
285.2673, 8.358536
285.7495, 9.976532
286.2316, 7.193771
286.7137, 2.600235
287.1958, 1.955536
287.6779, 5.362656
288.1600, 9.143188
288.6422, 11.16644
289.1243, 11.70821
289.6064, 11.81566
290.0885, 11.48853
290.5706, 10.79996
291.0527, 9.614487
291.5349, 7.990051
292.0170, 6.769638
292.4991, 6.644043
292.9812, 7.340683
293.4633, 8.123199
293.9454, 9.129181
294.4276, 9.517181
294.9097, 7.224075
295.3918, 2.873062
295.8739, 0.1979680
296.3560, 0.5337370
296.8381, 3.642731
297.3203, 6.045624
297.8024, 7.722534
298.2845, 8.236633
298.7666, 5.922028
299.2487, 1.829651
299.7308, 0.8688510
300.2130, 0.4826200
300.6951, 3.522781
301.1772, 4.157715
301.6593, 2.399216
302.1414, 0.3351900
302.6235, 0.3446660
303.1057, 1.4252000E-02
303.5878, 0.7529910
304.0699, 2.175415
304.5520, 3.433548
305.0341, 3.126923
305.5162, 1.457596
305.9984, 1.1902000E-02
306.4805, 0.3826450
306.9626, 1.940948
307.4447, 3.286362
307.9268, 4.580475
308.4089, 4.872849
308.8911, 2.002808
309.3732, 3.078491
309.8553, 6.449173
310.3374, 4.066330
310.8195, 0.3609920
311.3016, 3.049255
311.7838, 2.665863
312.2659, 1.594696
312.7480, 0.3466190
313.2301, 0.4938200
313.7122, 0.4746090
314.1943, 7.808517
314.6765, 14.70509
315.1586, 15.36899
315.6407, 7.014664
316.1228, 0.5588380
316.6049, 1.773514
317.0870, 0.7644200
317.5692, 2.770920
318.0513, 1.626068
318.5334, 0.4738160
319.0155, 1.250717
319.4976, 4.500809
319.9797, 6.832092
320.4619, 6.070007
320.9440, 4.166855
321.4261, 3.318237
321.9082, 5.018356
322.3903, 6.898010
322.8724, 8.747787
323.3546, 10.56473
323.8367, 10.70795
324.3188, 6.809189
324.8009, 2.234512
325.2830, 0.4037020
325.7651, 2.011230
326.2473, 3.247238
326.7294, 0.7807920
327.2115, 4.562790
327.6936, 6.241638
328.1757, 0.7079320
328.6578, 8.073502
329.1400, 11.76332
329.6221, 7.518448
330.1042, 5.302505
330.5863, 5.753403
331.0684, 8.294128
331.5505, 11.35860
332.0327, 16.68211
332.5148, 20.50890
332.9969, 21.02307
333.4790, 16.56358
333.9611, 13.37628
334.4432, 11.98798
334.9254, 11.56013
335.4075, 10.63217
335.8896, 8.777939
336.3717, 7.236877
336.8538, 6.128845
337.3359, 5.308594
337.8180, 6.775909
338.3001, 11.48106
338.7823, 17.01735
339.2644, 20.65297
339.7465, 22.20438
340.2286, 22.63316
340.7107, 21.46573
341.1928, 19.21040
341.6750, 20.33170
342.1571, 25.91661
342.6392, 30.84355
343.1213, 29.35545
343.6034, 21.30524
344.0855, 17.05931
344.5677, 19.29245
345.0498, 25.29442
345.5319, 28.62338
346.0140, 29.19870
346.4961, 28.70753
346.9782, 28.01825
347.4604, 27.13483
347.9425, 25.79710
348.4246, 23.63243
348.9067, 22.03716
349.3888, 23.96893
349.8709, 28.73912
350.3531, 32.50888
350.8352, 32.74699
351.3173, 30.81026
351.7994, 29.06822
352.2815, 27.58376
352.7636, 26.57661
353.2458, 26.26987
353.7279, 26.50793
354.2100, 27.26526
354.6921, 29.21022
355.1742, 31.11787
355.6563, 31.37659
356.1385, 30.14430
356.6206, 29.11592
357.1027, 29.72334
357.5848, 30.95815
358.0669, 32.06444
358.5490, 32.44116
359.0312, 32.52179
359.5133, 32.70764
359.9954, 32.91150
360.4775, 33.00079
360.9596, 33.35297
361.4417, 33.38959
361.9239, 32.36639
362.4060, 29.38599
362.8881, 27.59290
363.3702, 29.11026
363.8523, 32.31583
364.3344, 34.85844
364.8166, 35.80487
365.2987, 36.14745
365.7808, 36.23959
366.2629, 36.12097
366.7450, 35.64355
367.2271, 34.66002
367.7093, 33.17201
368.1914, 31.36440
368.6735, 27.62231
369.1556, 25.14850
369.6377, 25.09254
370.1198, 27.09618
370.6020, 28.06502
371.0841, 26.66539
371.5662, 25.53653
372.0483, 26.18973
372.5304, 30.51920
373.0125, 32.89316
373.4947, 32.36792
373.9768, 30.01091
374.4589, 28.57838
374.9410, 28.76364
375.4231, 28.99826
375.9052, 28.82307
376.3874, 28.25764
376.8695, 26.78809
377.3516, 23.83536
377.8337, 20.90733
378.3158, 20.28828
378.7979, 22.39644
379.2801, 23.56618
379.7622, 22.30447
380.2443, 19.37836
380.7264, 18.57515
381.2085, 20.19640
381.6906, 21.83029
382.1728, 20.90538
382.6549, 17.90889
383.1370, 16.13974
383.6191, 16.65057
384.1012, 17.99371
384.5833, 17.33331
385.0655, 14.71518
385.5476, 12.92363
386.0297, 15.21538
386.5118, 19.14258
386.9939, 20.80806
387.4760, 19.68205
387.9582, 17.75250
388.4403, 16.63028
388.9224, 16.08342
389.4045, 15.63029
389.8866, 14.98175
390.3687, 14.39354
390.8509, 13.73802
391.3330, 13.11232
391.8151, 13.55136
392.2972, 17.04572
392.7793, 21.26848
393.2614, 24.06285
393.7436, 25.12061
394.2257, 24.26253
394.7078, 19.52274
395.1899, 12.60956
395.6720, 8.007935
396.1541, 8.434357
396.6363, 10.46262
397.1184, 12.71591
397.6005, 15.29597
398.0826, 17.31732
398.5647, 18.48758
399.0468, 19.08600
399.5290, 19.45119
400.0111, 19.15396
400.4932, 19.09769
400.9753, 18.85992
401.4574, 18.45964
401.9395, 20.84579
402.4217, 28.86244
402.9038, 36.68745
403.3859, 40.15292
403.8680, 37.04448
404.3501, 34.95108
404.8322, 35.11378
405.3144, 36.25819
405.7965, 34.62320
406.2786, 29.28078
406.7607, 24.22328
407.2428, 21.58536
407.7249, 21.46254
408.2071, 20.03320
408.6892, 16.92496
409.1713, 13.57831
409.6534, 11.58009
410.1355, 10.93562
410.6176, 11.69588
411.0998, 15.09189
411.5819, 19.12402
412.0640, 17.95801
412.5461, 11.80205
413.0282, 5.699432
413.5103, 4.558228
413.9925, 6.181168
414.4746, 5.505676
414.9567, 0.8345340
415.4388, 3.692200
415.9209, 2.933456
416.4030, 1.390472
416.8852, 5.028763
417.3673, 5.457733
417.8494, 4.524857
418.3315, 3.640182
418.8136, 2.893677
419.2957, 2.016052
419.7779, 0.5334010
420.2600, 1.011993
420.7421, 2.052017
421.2242, 2.500595
421.7063, 2.353134
422.1884, 0.9412690
422.6706, 1.231964
423.1527, 2.312103
423.6348, 0.9787900
424.1169, 0.8305210
424.5990, 2.517319
425.0811, 4.925171
425.5633, 5.065109
426.0454, 1.208023
426.5275, 4.243408
427.0096, 8.409088
427.4917, 11.55072
427.9738, 12.87080
428.4560, 11.47086
428.9381, 7.526825
429.4202, 5.598343
429.9023, 6.624619
430.3844, 7.964493
430.8665, 7.517395
431.3487, 4.896683
431.8308, 2.782501
432.3129, 1.313675
432.7950, 0.5744480
433.2771, 1.128799
433.7592, 3.031311
434.2414, 4.662796
434.7235, 4.790787
435.2056, 3.970078
435.6877, 4.668533
436.1698, 6.975967
436.6519, 9.608994
437.1341, 10.82588
437.6162, 11.31912
438.0983, 13.12444
438.5804, 17.65872
439.0625, 22.48654
439.5446, 24.82780
440.0268, 25.06339
440.5089, 24.57678
440.9910, 22.61496
441.4731, 21.20883
441.9552, 22.95959
442.4373, 28.93365
442.9195, 33.56589
443.4016, 31.93973
443.8837, 28.04871
444.3658, 26.75089
444.8479, 32.91263
445.3300, 38.42772
445.8122, 39.62161
446.2943, 37.13443
446.7764, 37.09750
447.2585, 43.87973
447.7406, 50.65137
448.2227, 53.92447
448.7049, 51.83655
449.1870, 49.64677
449.6691, 46.45929
450.1512, 43.62912
450.6333, 43.55811
451.1154, 47.47476
451.5976, 51.56165
452.0797, 55.08876
452.5618, 58.02391
453.0439, 59.37396
453.5260, 58.74335
454.0081, 57.69458
454.4903, 57.22939
454.9724, 57.35460
455.4545, 58.59113
455.9366, 61.44144
456.4187, 64.49435
456.9008, 64.94995
457.3830, 63.10808
457.8651, 61.29436
458.3472, 61.32507
458.8293, 61.88066
459.3114, 59.96893
459.7935, 55.62061
460.2757, 51.64447
460.7578, 50.92966
461.2399, 51.83307
461.7220, 52.07001
462.2041, 50.86469
462.6862, 49.41386
463.1684, 47.23010
463.6505, 45.09442
464.1326, 45.00241
464.6147, 51.20892
465.0968, 57.05963
465.5789, 57.94144
466.0611, 52.43335
466.5432, 49.53262
467.0253, 54.97443
467.5074, 62.06380
467.9895, 65.12177
468.4716, 58.35205
468.9538, 54.59169
469.4359, 55.42427
469.9180, 59.79001
470.4001, 64.65085
470.8822, 70.75407
471.3643, 75.96805
471.8465, 79.29332
472.3286, 80.58127
472.8107, 81.96127
473.2928, 83.50751
473.7749, 84.43169
474.2570, 83.20096
474.7392, 79.83232
475.2213, 78.16528
475.7034, 79.42804
476.1855, 82.15416
476.6676, 83.10210
477.1497, 82.61157
477.6319, 83.71567
478.1140, 90.65546
478.5961, 99.33475
479.0782, 102.7160
479.5603, 100.0823
480.0424, 96.40138
480.5246, 95.73090
481.0067, 96.44865
481.4888, 96.28018
481.9709, 93.85556
482.4530, 91.02151
482.9352, 88.79558
483.4173, 87.02878
483.8994, 85.07898
484.3815, 81.89685
484.8636, 78.84192
485.3457, 76.73682
485.8279, 75.77200
486.3100, 74.74438
486.7921, 73.13158
487.2742, 71.65875
487.7563, 71.09790
488.2384, 73.20915
488.7206, 73.11836
489.2027, 69.63763
489.6848, 63.69026
490.1669, 58.59735
490.6490, 54.10170
491.1311, 50.31148
491.6133, 48.05261
492.0954, 47.34804
492.5775, 44.44763
493.0596, 38.71655
493.5417, 33.56499
494.0238, 34.01810
494.5060, 38.73157
494.9881, 41.20261
495.4702, 38.87592
495.9523, 35.03293
496.4344, 34.76691
496.9165, 37.18755
497.3987, 38.94730
497.8808, 37.80429
498.3629, 35.34351
498.8450, 32.82744
499.3271, 30.30981
499.8092, 28.25398
500.2914, 27.40530
500.7735, 26.87498
501.2556, 25.77608
501.7377, 22.90775
502.2198, 20.65410
502.7019, 19.78844
503.1841, 19.91795
503.6662, 19.95416
504.1483, 19.52122
504.6304, 19.29457
505.1125, 19.48698
505.5946, 20.12215
506.0768, 21.02870
506.5589, 22.88831
507.0410, 23.99942
507.5231, 22.31544
508.0052, 17.10826
508.4873, 14.22104
508.9695, 14.95325
509.4516, 17.32373
509.9337, 17.50168
510.4158, 15.60394
510.8979, 13.84726
511.3800, 13.52365
511.8622, 13.88885
512.3443, 12.96190
512.8264, 10.83217
513.3085, 9.034271
513.7906, 9.464813
514.2728, 10.65218
514.7549, 10.36765
515.2370, 7.511261
515.7191, 5.234375
516.2012, 6.335220
516.6833, 9.118790
517.1655, 10.99435
517.6476, 11.14684
518.1297, 10.23894
518.6118, 8.196274
519.0939, 5.116669
519.5760, 1.948685
520.0582, 2.319153
520.5403, 5.648392
521.0224, 6.945938
521.5045, 5.326111
521.9866, 4.401306
522.4688, 4.804596
522.9509, 5.206024
523.4330, 3.561157
523.9151, 0.7055360
524.3972, 3.777512
524.8793, 4.534744
525.3615, 3.817261
525.8436, 3.748810
526.3257, 4.322983
526.8078, 5.055588
527.2899, 5.970993
527.7720, 6.797104
528.2542, 6.959930
528.7363, 6.441971
529.2184, 5.219620
529.7005, 2.295090
530.1826, 1.025040
530.6647, 2.850952
531.1469, 1.886673
531.6290, 0.5846710
532.1111, 0.5459900
532.5932, 1.130173
533.0753, 1.032333
533.5574, 1.571701
534.0396, 3.530472
534.5217, 3.080627
535.0038, 3.8070999E-02
535.4859, 1.181168
535.9680, 1.197510
536.4501, 4.153503
536.9323, 6.135193
537.4144, 7.245636
537.8965, 6.929825
538.3786, 4.579681
538.8607, 1.612457
539.3428, 0.1958310
539.8250, 0.3951870
540.3071, 1.235962
540.7892, 2.917114
541.2713, 4.682846
541.7534, 4.103897
542.2355, 1.409378
542.7177, 0.9768370
543.1998, 1.551193
543.6819, 0.8406520
544.1640, 0.5855260
544.6461, 2.716873
545.1282, 4.760651
545.6104, 7.160416
546.0925, 8.733582
546.5746, 7.964340
547.0567, 1.689102
547.5388, 3.140182
548.0209, 3.449661
548.5031, 0.6697540
548.9852, 2.029694
549.4673, 4.830444
549.9494, 6.799164
550.4315, 7.275360
550.9136, 6.270370
551.3958, 6.486465
551.8779, 8.293701
552.3600, 10.70619
552.8421, 13.55801
553.3242, 17.09128
553.8063, 18.37561
554.2885, 16.71739
554.7706, 14.38106
555.2527, 14.98216
555.7348, 17.94144
556.2169, 19.51231
556.6990, 17.93121
557.1812, 15.23003
557.6633, 13.86519
558.1454, 13.77159
558.6275, 14.71165
559.1096, 18.22183
559.5917, 21.55809
560.0739, 21.83267
560.5560, 18.80775
561.0381, 16.50626
561.5202, 17.42126
562.0023, 19.18690
562.4844, 20.03020
562.9666, 18.64485
563.4487, 17.93221
563.9308, 18.38312
564.4129, 19.43390
564.8950, 20.32103
565.3771, 21.26093
565.8593, 21.46487
566.3414, 20.43188
566.8235, 18.56497
567.3056, 17.58234
567.7877, 17.50645
568.2698, 18.19807
568.7520, 20.46588
569.2341, 23.53476
569.7162, 23.78125
570.1983, 20.89664
570.6804, 18.42072
571.1625, 20.98820
571.6447, 25.85023
572.1268, 28.26263
572.6089, 25.84248
573.0910, 23.52313
573.5731, 25.81493
574.0552, 30.16716
574.5374, 32.16704
575.0195, 26.58047
575.5016, 22.24530
575.9837, 23.07295
576.4658, 28.60957
576.9479, 32.28256
577.4301, 32.82416
577.9122, 32.52299
578.3943, 32.20863
578.8764, 31.80594
579.3585, 33.27533
579.8406, 37.46069
580.3228, 41.41653
580.8049, 41.19759
581.2870, 37.26379
581.7691, 36.05882
582.2512, 38.96280
582.7333, 43.52502
583.2155, 46.29733
583.6975, 47.70914
584.1796, 49.24866
584.6617, 51.82597
585.1439, 54.63171
585.6260, 56.67580
586.1081, 58.18314
586.5902, 60.30255
587.0723, 64.00333
587.5544, 68.10526
588.0366, 71.91257
588.5187, 75.34283
589.0008, 78.79034
589.4829, 82.90707
589.9650, 86.58693
590.4471, 88.92673
590.9293, 89.30524
591.4114, 90.09882
591.8935, 91.53979
592.3756, 93.13428
592.8577, 93.65373
593.3398, 92.99051
593.8220, 93.41357
594.3041, 96.33990
594.7862, 100.0158
595.2683, 99.96964
595.7504, 96.60513
596.2325, 92.87555
596.7147, 90.13054
597.1968, 88.25708
597.6789, 87.70554
598.1610, 88.54837
598.6431, 88.52805
599.1252, 85.20152
599.6074, 81.16287
600.0895, 78.62328
600.5716, 79.27948
601.0537, 78.98895
601.5358, 76.40596
602.0179, 72.98062
602.5001, 70.50768
602.9822, 69.56754
603.4643, 68.35010
603.9464, 66.35089
604.4285, 63.93671
604.9106, 62.17348
605.3928, 60.84239
605.8749, 60.15027
606.3570, 60.70026
606.8391, 61.95776
607.3212, 62.45078
607.8033, 62.18365
608.2855, 61.40048
608.7676, 59.31740
609.2497, 57.22681
609.7318, 57.13670
610.2139, 59.65604
610.6960, 62.58266
611.1782, 64.76746
611.6603, 66.69528
612.1424, 68.90981
612.6245, 72.27167
613.1066, 74.99956
613.5887, 76.89560
614.0709, 78.02119
614.5530, 78.41455
615.0351, 77.74353
615.5172, 77.03708
615.9993, 76.32727
616.4814, 75.79478
616.9636, 76.19276
617.4457, 77.50644
617.9278, 79.83434
618.4099, 84.12149
618.8920, 89.37727
619.3741, 92.75621
619.8563, 94.26334
620.3384, 95.49139
620.8205, 97.67499
621.3026, 100.2114
621.7847, 102.4595
622.2668, 104.3032
622.7490, 106.1107
623.2311, 108.3990
623.7132, 110.6229
624.1953, 112.0856
624.6774, 111.4481
625.1595, 111.5949
625.6417, 113.7512
626.1238, 116.7791
626.6059, 117.2030
627.0880, 114.1345
627.5701, 111.2089
628.0522, 110.0367
628.5344, 110.0542
629.0165, 108.2855
629.4986, 104.7029
629.9807, 100.5940
630.4628, 96.50180
630.9449, 92.62955
631.4271, 89.37738
631.9092, 86.81747
632.3913, 84.49316
632.8734, 82.17303
633.3555, 79.57831
633.8376, 76.36026
634.3198, 72.25906
634.8019, 68.17075
635.2840, 63.13901
635.7661, 58.21574
636.2482, 55.11804
636.7303, 56.20285
637.2125, 55.34908
637.6946, 50.66171
638.1767, 43.95309
638.6588, 40.48657
639.1409, 40.61720
639.6230, 41.40227
640.1052, 42.26093
640.5873, 42.70605
641.0694, 40.85367
641.5515, 36.86407
642.0336, 32.68785
642.5157, 28.97426
642.9979, 26.15846
643.4800, 25.28365
643.9621, 26.51486
644.4442, 27.33894
644.9263, 25.68365
645.4084, 23.60780
645.8906, 22.90492
646.3727, 25.52136
646.8548, 26.34801
647.3369, 23.43242
647.8190, 19.78137
648.3011, 19.48224
648.7833, 24.23906
649.2654, 26.45232
649.7475, 24.35974
650.2296, 19.93068
650.7117, 16.67839
651.1938, 14.59686
651.6760, 13.49347
652.1581, 14.38536
652.6402, 15.31357
653.1223, 12.12029
653.6044, 5.996597
654.0865, 1.572327
654.5687, 3.008713
655.0508, 5.919281
655.5329, 7.429916
656.0150, 7.268860
656.4971, 7.539368
656.9792, 9.374908
657.4614, 11.22711
657.9435, 12.38483
658.4256, 13.01064
658.9077, 12.02826
659.3898, 8.554779
659.8719, 5.487854
660.3541, 6.422287
660.8362, 11.03064
661.3183, 13.13475
661.8004, 11.68332
662.2825, 8.606918
662.7646, 5.516724
663.2468, 2.786331
663.7289, 1.430862
664.2110, 3.021713
664.6931, 4.585388
665.1752, 3.143524
665.6573, 9.1826998E-02
666.1395, 1.311478
666.6216, 1.551910
667.1037, 4.526230
667.5858, 6.648956
668.0679, 7.879684
668.5500, 7.602234
669.0322, 4.992462
669.5143, 2.493591
669.9964, 1.232147
670.4785, 1.130264
670.9606, 0.8802030
671.4427, 0.4548030
671.9249, 9.6619003E-02
672.4070, 0.6050420
672.8891, 0.9772190
673.3712, 1.053940
673.8533, 5.971405
674.3354, 10.09576
674.8176, 10.81139
675.2997, 9.354614
675.7818, 6.857742
676.2639, 2.714890
676.7460, 0.6585240
677.2281, 2.966278
677.7103, 4.171982
678.1924, 4.290527
678.6745, 2.938614
679.1566, 1.259018
679.6387, 0.8864590
680.1208, 3.032486
680.6030, 4.046432
681.0851, 3.919205
681.5672, 3.814850
682.0493, 4.344528
682.5314, 4.955627
683.0135, 4.124008
683.4957, 2.344986
683.9778, 1.617172
684.4599, 4.760651
684.9420, 7.932220
685.4241, 8.143478
685.9063, 5.513718
686.3884, 3.216232
686.8705, 2.040619
687.3526, 1.443283
687.8347, 1.361710
688.3168, 1.986618
688.7990, 1.547668
689.2811, 0.6421970
689.7632, 2.376190
690.2453, 1.009308
690.7274, 3.048172
691.2095, 3.690887
691.6917, 0.1315770
692.1738, 3.879623
692.6559, 4.216782
693.1380, 2.288376
693.6201, 0.3304900
694.1022, 1.308182
694.5844, 2.430481
695.0665, 1.882568
695.5486, 1.101273
696.0307, 1.933548
696.5128, 8.175491
696.9949, 11.58929
697.4771, 10.19737
697.9592, 6.103790
698.4413, 3.368988
698.9234, 2.130890
699.4055, 1.834503
699.8876, 2.748306
700.3698, 4.134201
700.8519, 3.869171
701.3340, 2.188797
701.8161, 0.6413120
702.2982, 4.3381002E-02
702.7803, 7.8739999E-03
703.2625, 0.1703490
703.7446, 0.5404970
704.2267, 0.9397430
704.7088, 0.9878390
705.1909, 1.324951
705.6730, 2.788254
706.1552, 5.600082
706.6373, 6.202255
707.1194, 2.433456
707.6015, 0.5109710
708.0836, 1.178452
708.5657, 7.915588
709.0479, 10.12862
709.5300, 7.278717
710.0121, 3.186081
710.4942, 0.6933440
710.9763, 0.3134460
711.4584, 0.2139590
711.9406, 2.465805
712.4227, 4.648743
712.9048, 5.534012
713.3869, 5.676331
713.8690, 5.633530
714.3511, 5.457809
714.8333, 5.255722
715.3154, 5.832962
715.7975, 5.966797
716.2796, 3.906754
716.7617, 1.881287
717.2438, 5.175537
717.7260, 4.858826
718.2081, 2.285599
718.6902, 0.9812930
719.1723, 4.736298
719.6544, 7.079895
720.1365, 7.130096
720.6187, 5.969513
721.1008, 4.060532
721.5829, 1.943451
722.0650, 0.8615720
722.5471, 2.099167
723.0292, 3.745224
723.5114, 5.196106
723.9935, 6.370209
724.4756, 7.193176
724.9577, 7.386063
725.4398, 7.631744
725.9219, 8.451614
726.4041, 9.511398
726.8862, 8.336197
727.3683, 4.660751
727.8504, 1.667221
728.3325, 1.938629
728.8146, 3.880310
729.2968, 3.840271
729.7789, 2.040939
730.2610, 0.6372680
730.7431, 1.233887
731.2252, 2.601440
731.7073, 4.272064
732.1895, 6.330338
732.6716, 6.734375
733.1537, 2.925354
733.6358, 0.6413880
734.1179, 1.587723
734.6000, 0.6707610
735.0822, 1.797913
735.5643, 1.560516
736.0464, 1.262329
736.5285, 2.308487
737.0106, 4.360031
737.4927, 6.272598
737.9749, 7.969650
738.4570, 8.641266
738.9391, 6.649124
739.4212, 3.684753
739.9033, 1.615967
740.3854, 0.8551640
740.8676, 1.034576
741.3497, 2.538239
741.8318, 4.603546
742.3139, 6.541855
742.7960, 8.663773
743.2781, 9.815186
743.7603, 9.830551
744.2424, 8.999771
744.7245, 7.123871
745.2066, 4.473312
745.6887, 3.319855
746.1708, 4.471024
746.6530, 6.576981
747.1351, 8.829330
747.6172, 10.68181
748.0993, 11.46454
748.5814, 9.956146
749.0635, 8.255676
749.5457, 6.545364
750.0278, 5.003174
750.5099, 4.762802
750.9920, 6.851730
751.4741, 8.703979
751.9562, 9.839523
752.4384, 10.29486
752.9205, 10.15930
753.4026, 9.440140
753.8847, 7.967560
754.3668, 4.880188
754.8489, 1.919769
755.3311, 2.448761
755.8132, 5.319824
756.2953, 7.142441
756.7774, 5.018402
757.2595, 2.764679
757.7416, 2.463821
758.2238, 3.766327
758.7059, 4.314804
759.1880, 3.487930
759.6701, 2.695770
760.1522, 2.215302
760.6343, 2.100937
761.1165, 2.785751
761.5986, 4.302383
762.0807, 5.772446
762.5628, 6.650101
763.0449, 7.195938
763.5270, 7.978516
764.0092, 8.905869
764.4913, 9.453522
764.9734, 9.386200
765.4555, 8.731552
765.9376, 7.076675
766.4197, 4.365021
766.9019, 3.457367
767.3840, 6.366623
767.8661, 8.340042
768.3482, 6.413544
768.8303, 0.8473970
769.3124, 0.4971770
769.7946, 5.813461
770.2767, 10.57030
770.7588, 9.245117
771.2409, 4.814255
771.7230, 2.172440
772.2051, 1.527176
772.6873, 2.322571
773.1694, 6.523087
773.6515, 10.28261
774.1336, 10.23923
774.6157, 4.877762
775.0978, 2.515762
775.5800, 5.844238
776.0621, 9.677109
776.5442, 10.59883
777.0263, 8.356995
777.5084, 6.073318
777.9905, 3.597595
778.4727, 2.397034
778.9548, 4.760880
779.4369, 8.882523
779.9190, 11.97432
780.4011, 13.76445
780.8832, 13.92358
781.3654, 10.13843
781.8475, 6.125427
782.3296, 4.924500
782.8117, 8.243576
783.2938, 10.11110
783.7759, 9.984711
784.2581, 9.194672
784.7402, 8.450378
785.2223, 7.750168
785.7044, 8.229828
786.1865, 10.05093
786.6686, 12.01698
787.1508, 13.57153
787.6329, 14.30170
788.1150, 13.28056
788.5971, 10.10553
789.0792, 6.953140
789.5613, 4.521515
790.0435, 2.737579
790.5256, 1.530289
791.0077, 0.8589630
791.4898, 0.7998960
791.9719, 1.604797
792.4540, 2.840469
792.9362, 4.011490
793.4183, 5.068939
793.9004, 5.075851
794.3825, 3.862625
794.8646, 2.784027
795.3467, 3.794815
795.8289, 5.495880
796.3110, 5.806152
796.7931, 4.047760
797.2752, 2.346924
797.7573, 0.3300320
798.2394, 0.5238490
798.7216, 1.256088
799.2037, 7.743011
799.6858, 11.13634
800.1679, 10.58630
800.6500, 8.895660
801.1321, 8.910690
801.6143, 10.29549
802.0964, 11.33850
802.5785, 11.90024
803.0606, 11.78339
803.5427, 9.803589
804.0248, 7.759064
804.5070, 7.989105
804.9891, 12.23132
805.4712, 14.79021
805.9533, 12.94386
806.4354, 10.00751
806.9175, 8.300095
807.3997, 8.276672
807.8818, 8.476273
808.3639, 9.003235
808.8460, 9.253586
809.3281, 7.520813
809.8102, 5.154480
810.2924, 6.544281
810.7745, 12.80156
811.2566, 17.60725
811.7387, 15.13994
812.2208, 10.11360
812.7029, 6.859909
813.1851, 6.159515
813.6672, 6.078812
814.1493, 6.891068
814.6314, 7.639160
815.1135, 7.166595
815.5956, 5.388885
816.0778, 6.685638
816.5599, 11.62770
817.0420, 16.41994
817.5241, 16.67947
818.0062, 14.61154
818.4883, 14.23477
818.9705, 16.52478
819.4526, 17.67862
819.9347, 15.06427
820.4168, 11.30031
820.8989, 8.116013
821.3810, 5.599991
821.8632, 3.847015
822.3453, 2.805359
822.8274, 2.544266
823.3095, 3.132187
823.7916, 4.625504
824.2737, 7.644989
824.7559, 12.24957
825.2380, 16.32378
825.7201, 18.45470
826.2022, 18.98619
826.6843, 17.91435
827.1664, 15.10883
827.6486, 12.30586
828.1307, 8.808731
828.6128, 6.438049
829.0949, 6.359207
829.5770, 8.749298
830.0591, 10.68977
830.5413, 12.21144
831.0234, 13.11314
831.5055, 13.59486
831.9876, 13.24297
832.4697, 9.976624
832.9518, 4.120270
833.4340, 0.8109440
833.9161, 6.008011
834.3982, 12.00102
834.8803, 13.49693
835.3624, 9.755386
835.8445, 7.778473
836.3267, 7.973694
836.8088, 9.095505
837.2909, 11.01320
837.7730, 13.40886
838.2551, 14.17326
838.7372, 13.42615
839.2194, 12.58372
839.7015, 12.91940
840.1836, 13.19528
840.6657, 11.79431
841.1478, 9.109360
841.6299, 7.511490
842.1121, 8.473862
842.5942, 9.985504
843.0763, 11.60619
843.5584, 12.92964
844.0405, 12.90280
844.5226, 11.30756
845.0048, 9.981384
845.4869, 9.447632
845.9690, 9.708771
846.4511, 12.21233
846.9332, 16.04356
847.4153, 18.15727
847.8975, 15.24834
848.3796, 12.11087
848.8617, 11.05255
849.3438, 11.64804
849.8259, 12.35214
850.3080, 13.78171
850.7902, 13.62883
851.2723, 10.52972
851.7544, 6.545319
852.2365, 7.074738
852.7186, 11.29851
853.2007, 14.39963
853.6829, 14.32117
854.1650, 12.96292
854.6471, 11.34891
855.1292, 9.751846
855.6113, 8.621140
856.0934, 8.981796
856.5756, 8.618835
857.0577, 6.496140
857.5398, 4.114380
858.0219, 4.116943
858.5040, 6.715225
858.9861, 7.427231
859.4683, 4.977371
859.9504, 2.422531
860.4325, 4.697037
860.9146, 9.181458
861.3967, 11.31679
861.8788, 9.345612
862.3610, 6.693451
862.8431, 2.890518
863.3252, 0.1475830
863.8073, 0.7722780
864.2894, 6.683929
864.7715, 9.992538
865.2537, 10.27795
865.7358, 8.962341
866.2179, 6.693039
866.7000, 4.016129
867.1821, 2.460022
867.6642, 2.187714
868.1464, 2.457825
868.6285, 4.171539
869.1106, 5.209839
869.5927, 3.261520
870.0748, 3.044556
870.5569, 5.932510
871.0391, 4.298691
871.5212, 1.246002
872.0033, 1.960892
872.4854, 5.154770
872.9675, 7.037888
873.4496, 7.639328
873.9318, 7.065094
874.4139, 3.547287
874.8960, 0.2778470
875.3781, 1.111374
875.8602, 5.446152
876.3423, 7.782898
876.8245, 4.600235
877.3066, 1.843002
877.7887, 1.291229
878.2708, 2.342468
878.7529, 2.332626
879.2350, 1.252060
879.7172, 0.6554260
880.1993, 1.551941
880.6814, 2.902084
881.1635, 3.291580
881.6456, 3.080902
882.1277, 3.091751
882.6099, 4.446152
883.0920, 5.049103
883.5741, 3.628860
884.0562, 1.447983
884.5383, 0.4850310
885.0204, 0.8763890
885.5026, 1.787140
885.9847, 3.315689
886.4668, 4.581070
886.9489, 3.963028
887.4310, 2.284103
887.9131, 1.199463
888.3953, 1.240005
888.8774, 1.580597
889.3595, 2.866547
889.8416, 3.640533
890.3237, 2.321548
890.8058, 2.395386
891.2880, 5.437805
891.7701, 6.377426
892.2522, 6.378143
892.7343, 6.314835
893.2164, 6.132080
893.6985, 5.616852
894.1807, 4.753510
894.6628, 3.859970
895.1449, 2.969513
895.6270, 2.276871
896.1091, 2.058960
896.5912, 2.385178
897.0734, 2.066055
897.5555, 0.6716160
898.0376, 0.3193660
898.5197, 7.1456999E-02
899.0018, 1.101913
899.4839, 2.640106
899.9661, 4.262299
900.4482, 4.452484
900.9303, 0.1165010
901.4124, 3.804047
901.8945, 2.704819
902.3766, 1.574722
902.8588, 2.619949
903.3409, 2.609955
903.8230, 6.469330
904.3051, 7.352890
904.7872, 6.510620
905.2693, 6.671112
905.7515, 7.520264
906.2336, 6.887802
906.7157, 3.489868
907.1978, 0.3647000
907.6799, 7.2800003E-02
908.1620, 1.350677
908.6442, 3.733200
909.1263, 8.032623
909.6084, 11.27147
910.0905, 13.73694
910.5726, 14.73857
911.0547, 12.45323
911.5369, 7.409180
912.0190, 6.359573
912.5011, 9.817810
912.9832, 13.71878
913.4653, 14.54422
913.9474, 14.34750
914.4296, 15.32730
914.9117, 17.75137
915.3938, 18.84344
915.8759, 17.54755
916.3580, 15.86511
916.8401, 13.97157
917.3223, 12.23744
917.8044, 13.83807
918.2865, 18.65137
918.7686, 22.76341
919.2507, 23.10570
919.7328, 22.54747
920.2150, 23.89970
920.6971, 26.49481
921.1792, 28.80588
921.6613, 32.21106
922.1434, 33.15965
922.6255, 29.54189
923.1077, 24.45184
923.5898, 23.92880
924.0719, 27.64410
924.5540, 29.49509
925.0361, 27.79292
925.5182, 25.98770
926.0004, 27.97412
926.4825, 31.67958
926.9646, 34.61011
927.4467, 36.15459
927.9288, 36.67931
928.4109, 35.48792
928.8931, 34.96289
929.3752, 37.14583
929.8573, 41.93265
930.3394, 44.93343
930.8215, 46.06119
931.3036, 46.40112
931.7858, 46.09857
932.2679, 45.84668
932.7500, 46.68939
933.2321, 48.54175
933.7142, 49.46530
934.1964, 47.26874
934.6785, 46.25482
935.1606, 47.79779
935.6427, 51.04984
936.1248, 53.04825
936.6069, 53.97794
937.0891, 56.47235
937.5712, 62.82706
938.0533, 68.58401
938.5354, 68.14301
939.0175, 64.63174
939.4996, 62.66779
939.9818, 64.54559
940.4639, 66.32837
940.9460, 67.87262
941.4281, 69.19330
941.9102, 70.21109
942.3923, 70.93173
942.8745, 71.57285
943.3566, 72.16498
943.8387, 72.72745
944.3208, 72.01797
944.8029, 72.20883
945.2850, 76.56418
945.7672, 85.48962
946.2493, 89.61368
946.7314, 85.14365
947.2135, 81.79932
947.6956, 83.88858
948.1777, 89.68860
948.6599, 92.81677
949.1420, 93.58719
949.6241, 93.69980
950.1062, 93.27872
950.5883, 93.30835
951.0704, 93.75195
951.5526, 95.31912
952.0347, 99.61572
952.5168, 109.2195
952.9989, 116.1840
953.4810, 119.2138
953.9631, 120.8026
954.4453, 124.1339
954.9274, 128.6851
955.4095, 132.2710
955.8916, 134.4037
956.3737, 137.2012
956.8558, 141.7833
957.3380, 147.7007
957.8201, 155.2411
958.3022, 164.6255
958.7843, 172.7842
959.2664, 179.3471
959.7485, 184.9771
960.2307, 189.5287
960.7128, 193.6078
961.1949, 198.6483
961.6770, 204.4723
962.1591, 210.6892
962.6412, 218.2849
963.1234, 225.0103
963.6055, 228.8014
964.0876, 231.6359
964.5697, 237.2336
965.0518, 246.4790
965.5339, 254.2197
966.0161, 259.8877
966.4982, 263.8157
966.9803, 265.6002
967.4624, 266.2605
967.9445, 267.5255
968.4266, 269.7729
968.9088, 271.7407
969.3909, 273.8998
969.8730, 274.6774
970.3551, 273.1240
970.8372, 269.3612
971.3193, 264.4821
971.8015, 258.4075
972.2836, 254.4943
972.7657, 257.5807
973.2478, 261.2708
973.7299, 257.0577
974.2120, 247.4153
974.6942, 238.4816
975.1763, 233.9780
975.6584, 227.5383
976.1405, 216.7508
976.6226, 205.3536
977.1047, 199.3917
977.5869, 198.2609
978.0690, 195.8884
978.5511, 191.4134
979.0332, 186.0831
979.5153, 180.1928
979.9974, 174.3979
980.4796, 169.7287
980.9617, 166.6268
981.4438, 161.1599
981.9259, 151.7596
982.4080, 143.0065
982.8901, 137.2585
983.3723, 133.4775
983.8544, 128.8390
984.3365, 123.3231
984.8186, 116.8536
985.3007, 107.0810
985.7828, 98.89529
986.2650, 96.56921
986.7471, 96.57233
987.2292, 92.74652
987.7113, 83.66348
988.1934, 75.73041
988.6755, 69.45969
989.1577, 64.47180
989.6398, 61.63809
990.1219, 59.35468
990.6040, 53.94543
991.0861, 44.94073
991.5682, 38.37329
992.0504, 39.59586
992.5325, 40.72980
993.0146, 37.85120
993.4967, 31.90219
993.9788, 27.97760
994.4609, 26.07468
994.9431, 24.13757
995.4252, 20.85678
995.9073, 17.88153
996.3894, 17.90790
996.8715, 19.19019
997.3536, 18.85522
997.8358, 13.69449
998.3179, 10.68924
998.8000, 10.77432
999.2821, 11.81949
999.7642, 11.51608
1000.246, 10.27240
1000.728, 11.10388
1001.211, 14.01053
1001.693, 15.15634
1002.175, 8.400513
1002.657, 2.271027
1003.139, 3.937714
1003.621, 12.13324
1004.103, 16.14676
1004.585, 15.21469
1005.068, 12.63312
1005.550, 8.469299
1006.032, 4.741455
1006.514, 5.530243
1006.996, 8.983368
1007.478, 11.38416
1007.960, 11.40820
1008.442, 11.03589
1008.924, 10.35763
1009.407, 9.965759
1009.889, 10.30463
1010.371, 11.39658
1010.853, 12.44708
1011.335, 13.46625
1011.817, 15.09576
1012.299, 18.72067
1012.781, 22.32141
1013.263, 23.95471
1013.746, 23.97601
1014.228, 23.77390
1014.710, 22.35751
1015.192, 23.26562
1015.674, 27.41031
1016.156, 32.96280
1016.638, 38.12500
1017.120, 42.45825
1017.603, 43.62051
1018.085, 40.82361
1018.567, 40.28937
1019.049, 47.99435
1019.531, 57.07751
1020.013, 62.70230
1020.495, 64.98251
1020.977, 68.08044
1021.459, 72.10895
1021.942, 76.18768
1022.424, 80.15546
1022.906, 83.56961
1023.388, 85.68649
1023.870, 87.00980
1024.352, 88.31744
1024.834, 87.22110
1025.316, 90.35483
1025.799, 100.5530
1026.281, 111.8159
1026.763, 116.9644
1027.245, 117.1769
1027.727, 121.6165
1028.209, 130.6631
1028.691, 139.4300
1029.173, 143.8788
1029.656, 147.6331
1030.138, 152.7340
1030.620, 159.1989
1031.102, 166.7999
1031.584, 176.2094
1032.066, 183.4362
1032.548, 186.3473
1033.030, 189.3896
1033.512, 201.2058
1033.995, 217.4059
1034.477, 230.0525
1034.959, 236.4009
1035.441, 242.8124
1035.923, 251.0375
1036.405, 259.4890
1036.887, 267.9554
1037.369, 275.9869
1037.851, 282.6336
1038.334, 287.7684
1038.816, 289.9538
1039.298, 285.6375
1039.780, 280.8268
1040.262, 280.3896
1040.744, 282.0707
1041.226, 281.6401
1041.708, 279.8466
1042.191, 272.7319
1042.673, 258.9642
1043.155, 243.5518
1043.637, 230.9534
1044.119, 220.4281
1044.601, 211.2938
1045.083, 203.1239
1045.565, 193.7497
1046.047, 181.3336
1046.530, 168.8967
1047.012, 157.4344
1047.494, 146.6814
1047.976, 135.8222
1048.458, 124.8465
1048.940, 114.6754
1049.422, 105.3704
1049.904, 97.02777
1050.386, 89.45486
1050.869, 82.97232
1051.351, 78.11594
1051.833, 75.07980
1052.315, 72.14630
1052.797, 69.32913
1053.279, 66.52591
1053.761, 64.06531
1054.243, 61.23816
1054.726, 55.97623
1055.208, 49.33237
1055.690, 44.09583
1056.172, 42.02161
1056.654, 40.51968
1057.136, 39.70486
1057.618, 38.62271
1058.100, 35.58566
1058.583, 31.07974
1059.065, 28.63461
1059.547, 28.47174
1060.029, 28.18469
1060.511, 26.03513
1060.993, 23.34671
1061.475, 21.10623
1061.957, 19.05310
1062.439, 15.43143
1062.922, 9.538055
1063.404, 6.670349
1063.886, 8.904114
1064.368, 12.46823
1064.850, 13.14871
1065.332, 12.04733
1065.814, 10.36975
1066.296, 7.972260
1066.778, 6.966980
1067.261, 8.881134
1067.743, 9.588226
1068.225, 5.941681
1068.707, 1.8310999E-02
1069.189, 0.6969910
1069.671, 2.570923
1070.153, 5.017731
1070.635, 4.479492
1071.118, 2.447571
1071.600, 2.661163
1072.082, 7.267883
1072.564, 7.497375
1073.046, 3.393036
1073.528, 0.2592470
1074.010, 3.329803
1074.492, 4.402100
1074.974, 0.5376590
1075.457, 4.278870
1075.939, 6.723114
1076.421, 6.920807
1076.903, 6.297363
1077.385, 4.755585
1077.867, 3.512329
1078.349, 2.900360
1078.831, 2.668762
1079.313, 2.850952
1079.796, 2.957031
1080.278, 1.777557
1080.760, 0.9651180
1081.242, 2.867004
1081.724, 2.437531
1082.206, 1.713409
1082.688, 1.362091
1083.170, 1.238647
1083.652, 0.6900020
1084.135, 0.1109010
1084.617, 5.0995000E-02
1085.099, 1.745850
1085.581, 3.113983
1086.063, 2.337708
1086.545, 0.7757260
1087.027, 0.3564760
1087.509, 1.000031
1087.992, 1.595261
1088.474, 2.160629
1088.956, 2.357635
1089.438, 2.253448
1089.920, 1.439041
1090.402, 1.587128
1090.884, 5.487244
1091.366, 7.208328
1091.849, 4.220901
1092.331, 3.392227
1092.813, 5.959335
1093.295, 8.221344
1093.777, 4.419037
1094.259, 1.600006
1094.741, 0.6473390
1095.223, 6.613724
1095.705, 11.99435
1096.188, 10.76526
1096.670, 8.753845
1097.152, 6.759995
1097.634, 5.552673
1098.116, 7.650284
1098.598, 12.10991
1099.080, 13.22853
1099.562, 9.836273
1100.044, 6.064606
1100.527, 4.458191
1101.009, 3.543106
1101.491, 2.025620
1101.973, 0.2010190
1102.455, 0.5470280
1102.937, 3.143311
1103.419, 5.498734
1103.901, 6.910431
1104.384, 7.384842
1104.866, 6.269409
1105.348, 4.554108
1105.830, 3.233536
1106.312, 2.197952
1106.794, 3.106506
1107.276, 6.692505
1107.758, 9.601181
1108.240, 9.313873
1108.723, 7.665939
1109.205, 8.081024
1109.687, 9.705338
1110.169, 10.57236
1110.651, 8.809036
1111.133, 8.217941
1111.615, 9.718430
1112.097, 11.35684
1112.579, 10.90886
1113.062, 9.133911
1113.544, 9.184189
1114.026, 10.81801
1114.508, 11.88440
1114.990, 10.11163
1115.472, 8.997253
1115.954, 10.23744
1116.436, 12.51343
1116.919, 14.21318
1117.401, 15.29977
1117.883, 14.75693
1118.365, 12.42624
1118.847, 9.796890
1119.329, 7.075851
1119.811, 5.274536
1120.293, 5.810440
1120.776, 7.933578
1121.258, 8.496979
1121.740, 7.276978
1122.222, 6.546951
1122.704, 6.819138
1123.186, 7.769974
1123.668, 10.20224
1124.150, 12.42087
1124.632, 12.11444
1125.115, 8.600235
1125.597, 6.928909
1126.079, 7.864014
1126.561, 8.142822
1127.043, 5.825790
1127.525, 3.240875
1128.007, 5.662384
1128.489, 10.01857
1128.971, 10.30963
1129.454, 1.663315
1129.936, 1.157303
1130.418, 6.578354
1130.900, 14.31604
1131.382, 15.26186
1131.864, 11.52132
1132.346, 8.742767
1132.828, 6.565781
1133.311, 4.094788
1133.793, 0.4635010
1134.275, 1.934067
1134.757, 2.696564
1135.239, 1.921936
1135.721, 1.092941
1136.203, 5.830795
1136.685, 8.261429
1137.167, 8.451401
1137.650, 7.753067
1138.132, 5.679855
1138.614, 4.576874
1139.096, 6.667206
1139.578, 9.523315
1140.060, 9.670242
1140.542, 7.142242
1141.024, 5.508682
1141.506, 5.054886
1141.989, 5.358185
1142.471, 7.016266
1142.953, 8.615341
1143.435, 8.782761
1143.917, 7.953201
1144.399, 7.876205
1144.881, 8.659210
1145.363, 9.359390
1145.846, 9.816895
1146.328, 10.10600
1146.810, 10.97658
1147.292, 11.28255
1147.774, 9.001297
1148.256, 4.365692
1148.738, 3.338623
1149.220, 7.070938
1149.703, 10.02686
1150.185, 10.64429
1150.667, 10.41037
1151.149, 11.74518
1151.631, 13.23877
1152.113, 12.21889
1152.595, 7.905441
1153.077, 6.556335
1153.559, 9.559784
1154.042, 12.39148
1154.524, 13.34216
1155.006, 12.89613
1155.488, 11.00844
1155.970, 8.680801
1156.452, 8.003036
1156.934, 9.974213
1157.416, 12.24438
1157.898, 15.34949
1158.381, 17.05518
1158.863, 15.36086
1159.345, 11.79520
1159.827, 10.92735
1160.309, 12.02235
1160.791, 12.88187
1161.273, 12.33043
1161.755, 11.87949
1162.238, 11.63821
1162.720, 11.85431
1163.202, 12.90164
1163.684, 14.58069
1164.166, 16.16446
1164.648, 17.59322
1165.130, 18.30014
1165.612, 17.63606
1166.094, 16.60820
1166.577, 15.27335
1167.059, 13.95265
1167.541, 12.74403
1168.023, 11.74435
1168.505, 12.35077
1168.987, 14.39253
1169.469, 16.10191
1169.951, 16.34233
1170.433, 16.13206
1170.916, 15.49275
1171.398, 14.94496
1171.880, 15.43163
1172.362, 16.86592
1172.844, 17.00490
1173.326, 15.73187
1173.808, 15.16194
1174.290, 18.23132
1174.773, 20.93446
1175.255, 20.92957
1175.737, 18.90205
1176.219, 15.26395
1176.701, 9.968521
1177.183, 7.506760
1177.665, 8.498810
1178.147, 10.82037
1178.630, 14.37923
1179.112, 17.15381
1179.594, 16.95442
1180.076, 14.82841
1180.558, 14.28561
1181.040, 15.41454
1181.522, 16.31734
1182.004, 16.72194
1182.486, 16.20959
1182.969, 13.02591
1183.451, 9.865814
1183.933, 9.382233
1184.415, 11.21364
1184.897, 12.34885
1185.379, 12.70787
1185.861, 11.94313
1186.343, 9.584137
1186.825, 7.298004
1187.308, 7.450745
1187.790, 7.711197
1188.272, 5.756638
1188.754, 1.300781
1189.236, 1.664597
1189.718, 3.202347
1190.200, 1.971085
1190.682, 3.531296
1191.165, 8.767883
1191.647, 8.455826
1192.129, 5.474472
1192.611, 2.664474
1193.093, 0.3858490
1193.575, 0.5974580
1194.057, 0.2266390
1194.539, 0.4779970
1195.021, 1.424118
1195.504, 1.969177
1195.986, 0.3015590
1196.468, 1.654465
1196.950, 0.9524690
1197.432, 3.242294
1197.914, 5.729706
1198.396, 6.395447
1198.878, 6.033447
1199.360, 4.694794
1199.843, 3.070297
1200.325, 1.081573
1200.807, 0.2457280
1201.289, 0.9533840
1201.771, 5.668274
1202.253, 9.246445
1202.735, 11.84558
1203.217, 12.19597
1203.700, 7.988968
1204.182, 3.112671
1204.664, 2.754181
1205.146, 4.498764
1205.628, 4.139816
1206.110, 0.2424320
1206.592, 1.531555
1207.074, 0.6705930
1207.557, 3.787277
1208.039, 7.552490
1208.521, 10.06265
1209.003, 7.652115
1209.485, 2.938202
1209.967, 0.9399260
1210.449, 3.379410
1210.931, 4.269104
1211.413, 3.266815
1211.896, 3.011871
1212.378, 6.249359
1212.860, 10.39633
1213.342, 13.01865
1213.824, 14.38174
1214.306, 14.87729
1214.788, 14.35194
1215.270, 13.81429
1215.752, 13.25226
1216.235, 12.97484
1216.717, 13.17181
1217.199, 13.79974
1217.681, 14.90395
1218.163, 16.40208
1218.645, 18.25423
1219.127, 21.01700
1219.609, 21.44284
1220.092, 19.11462
1220.574, 17.23279
1221.056, 18.49593
1221.538, 21.20789
1222.020, 24.55321
1222.502, 27.93753
1222.984, 30.36218
1223.466, 31.88240
1223.948, 31.97412
1224.431, 30.57210
1224.913, 28.34720
1225.395, 24.63054
1225.877, 21.43527
1226.359, 20.71152
1226.841, 21.75584
1227.323, 22.83368
1227.805, 24.17331
1228.287, 23.23453
1228.770, 19.67949
1229.252, 17.15585
1229.734, 19.73129
1230.216, 23.32541
1230.698, 25.74536
1231.180, 26.68610
1231.662, 25.31741
1232.144, 21.45428
1232.627, 19.88123
1233.109, 21.05190
1233.591, 22.35356
1234.073, 22.86320
1234.555, 21.79486
1235.037, 16.54243
1235.519, 10.19838
1236.001, 9.382568
1236.484, 14.10490
1236.966, 14.71925
1237.448, 10.39998
1237.930, 6.540939
1238.412, 8.097748
1238.894, 9.855392
1239.376, 8.111328
1239.858, 5.075165
1240.340, 4.832825
1240.823, 7.002991
1241.305, 6.184998
1241.787, 2.052277
1242.269, 0.2247770
1242.751, 8.292831
1243.233, 14.52338
1243.715, 12.16365
1244.197, 6.575043
1244.679, 6.895905
1245.162, 11.71341
1245.644, 12.97484
1246.126, 10.24197
1246.608, 7.648209
1247.090, 9.154892
1247.572, 10.74915
1248.054, 10.77934
1248.536, 9.983765
1249.019, 9.589478
1249.501, 9.579697
1249.983, 9.718475
1250.465, 10.19453
1250.947, 10.58513
1251.429, 10.54776
1251.911, 10.11937
1252.393, 9.118256
1252.875, 8.291275
1253.358, 8.349213
1253.840, 8.999039
1254.322, 9.902893
1254.804, 10.90746
1255.286, 11.19304
1255.768, 10.64357
1256.250, 9.949783
1256.732, 9.219604
1257.214, 8.202621
1257.697, 5.069382
1258.179, 2.069275
1258.661, 3.870438
1259.143, 9.734695
1259.625, 12.81776
1260.107, 11.09991
1260.589, 9.886871
1261.071, 9.992966
1261.554, 10.47339
1262.036, 10.45090
1262.518, 10.13800
1263.000, 9.932632
1263.482, 9.675278
1263.964, 8.408676
1264.446, 5.526611
1264.928, 4.490860
1265.411, 5.956390
1265.893, 7.529724
1266.375, 6.477493
1266.857, 5.116989
1267.339, 6.012680
1267.821, 8.167450
1268.303, 7.981262
1268.785, 5.117645
1269.267, 4.729889
1269.750, 7.448441
1270.232, 9.939774
1270.714, 8.960739
1271.196, 7.742477
1271.678, 8.847717
1272.160, 10.81470
1272.642, 11.20924
1273.124, 10.12816
1273.606, 8.720352
1274.089, 7.064392
1274.571, 6.219391
1275.053, 7.689484
1275.535, 9.051590
1276.017, 9.632141
1276.499, 9.421356
1276.981, 7.546127
1277.463, 4.877243
1277.946, 5.748505
1278.428, 9.723465
1278.910, 11.86850
1279.392, 7.326996
1279.874, 4.733887
1280.356, 6.497482
1280.838, 8.791794
1281.320, 6.446945
1281.802, 2.089417
1282.285, 1.679245
1282.767, 4.502289
1283.249, 6.306259
1283.731, 4.550583
1284.213, 4.977570
1284.695, 8.756210
1285.177, 12.04332
1285.659, 10.48886
1286.141, 7.046341
1286.624, 5.571594
1287.106, 5.328506
1287.588, 3.532715
1288.070, 1.197540
1288.552, 1.917770
1289.034, 2.060074
1289.516, 5.993713
1289.998, 5.913712
1290.481, 4.665573
1290.963, 4.289307
1291.445, 4.393311
1291.927, 4.016525
1292.409, 3.064774
1292.891, 3.937515
1293.373, 6.755417
1293.855, 8.276825
1294.338, 4.106857
1294.820, 1.275421
1295.302, 4.562485
1295.784, 8.692657
1296.266, 10.73866
1296.748, 12.45177
1297.230, 11.08586
1297.712, 7.423279
1298.194, 4.596542
1298.677, 4.989059
1299.159, 4.890869
1299.641, 5.099670
1300.123, 4.952332
1300.605, 2.653381
1301.087, 9.4573997E-02
1301.569, 2.107605
1302.051, 6.708954
1302.533, 4.926758
1303.016, 0.0000000E+00
##END=



