##NAMES=Ferricopiapite
##RRUFFID=R060721
##IDEAL CHEMISTRY=Fe^3+^_2/3_Fe^3+^_4_(SO_4_)_6_(OH)_2_&#183;20H_2_O
##LOCALITY=Alcaparrosa mine, near Cerritos Bayos, El Loa Province, Chile
##OWNER=RRUFF
##SOURCE=University of Arizona Mineral Museum
##DESCRIPTION=Yellow platy crystals associated with parabutlerite
##STATUS=The identification of this mineral has been confirmed only by single crystal X-ray diffraction.
##URL=rruff.info/R060721
103.684, 0.000
104.166, 47.438
104.648, 97.333
105.130, 129.891
105.612, 151.029
106.094, 179.624
106.576, 241.187
107.059, 229.360
107.541, 158.502
108.023, 96.530
108.505, 46.814
108.987, 1.782
109.469, 22.812
109.951, 21.168
110.433, 4.329
110.915, 32.913
111.398, 63.836
111.880, 96.202
112.362, 130.022
112.844, 163.876
113.326, 200.400
113.808, 239.707
114.290, 283.021
114.772, 328.936
115.255, 382.738
115.737, 437.890
116.219, 485.901
116.701, 513.823
117.183, 541.550
117.665, 580.028
118.147, 636.018
118.629, 707.800
119.112, 794.546
119.594, 882.718
120.076, 950.825
120.558, 971.849
121.040, 971.682
121.522, 974.278
122.004, 991.819
122.486, 1005.003
122.968, 1001.920
123.451, 982.015
123.933, 943.993
124.415, 862.757
124.897, 764.275
125.379, 672.469
125.861, 612.519
126.343, 545.705
126.825, 472.429
127.307, 371.256
127.790, 307.682
128.272, 233.412
128.754, 160.853
129.236, 107.501
129.718, 65.541
130.200, 33.552
130.682, 9.569
131.164, 5.070
131.646, 17.022
132.129, 43.296
132.611, 83.546
133.093, 109.968
133.575, 110.740
134.057, 85.876
134.539, 64.395
135.021, 24.826
135.503, 10.545
135.986, 41.983
136.468, 57.257
136.950, 94.042
137.432, 122.620
137.914, 151.163
138.396, 191.883
138.878, 219.023
139.360, 255.349
139.842, 277.987
140.325, 282.926
140.807, 280.328
141.289, 277.980
141.771, 275.932
142.253, 275.908
142.735, 275.328
143.217, 272.673
143.699, 287.689
144.182, 327.689
144.664, 381.313
145.146, 432.636
145.628, 480.930
146.110, 527.489
146.592, 570.174
147.074, 603.813
147.556, 646.328
148.038, 694.296
148.521, 751.912
149.003, 828.022
149.485, 941.075
149.967, 1058.505
150.449, 1167.406
150.931, 1267.282
151.413, 1360.885
151.895, 1437.600
152.378, 1504.951
152.860, 1592.715
153.342, 1728.051
153.824, 1868.804
154.306, 1993.307
154.788, 2091.515
155.270, 2174.186
155.752, 2239.422
156.234, 2287.027
156.717, 2332.018
157.199, 2388.419
157.681, 2443.808
158.163, 2485.827
158.645, 2492.898
159.127, 2503.227
159.609, 2467.946
160.091, 2487.294
160.574, 2493.935
161.056, 2488.583
161.538, 2422.062
162.020, 2419.587
162.502, 2391.229
162.984, 2375.431
163.466, 2322.269
163.948, 2273.764
164.430, 2222.890
164.913, 2163.111
165.395, 2098.680
165.877, 2037.119
166.359, 1984.701
166.841, 1934.408
167.323, 1883.148
167.805, 1823.001
168.287, 1780.221
168.770, 1734.995
169.252, 1686.705
169.734, 1624.847
170.216, 1581.501
170.698, 1531.335
171.180, 1485.178
171.662, 1448.202
172.144, 1403.626
172.626, 1353.467
173.109, 1299.270
173.591, 1249.219
174.073, 1218.082
174.555, 1192.731
175.037, 1151.951
175.519, 1077.186
176.001, 994.729
176.483, 935.373
176.965, 898.244
177.448, 873.339
177.930, 846.405
178.412, 824.967
178.894, 826.767
179.376, 875.657
179.858, 944.171
180.340, 981.152
180.822, 984.092
181.305, 987.334
181.787, 1023.203
182.269, 1087.334
182.751, 1163.704
183.233, 1241.081
183.715, 1325.792
184.197, 1437.079
184.679, 1580.818
185.161, 1727.559
185.644, 1841.026
186.126, 1922.764
186.608, 2003.887
187.090, 2097.353
187.572, 2200.617
188.054, 2308.022
188.536, 2418.564
189.018, 2531.311
189.501, 2644.941
189.983, 2757.186
190.465, 2864.823
190.947, 2966.476
191.429, 3063.068
191.911, 3153.991
192.393, 3247.132
192.875, 3321.883
193.357, 3334.513
193.840, 3281.878
194.322, 3195.837
194.804, 3096.553
195.286, 2983.892
195.768, 2836.485
196.250, 2644.563
196.732, 2424.025
197.214, 2210.899
197.697, 2005.987
198.179, 1807.067
198.661, 1612.939
199.143, 1424.164
199.625, 1230.417
200.107, 1023.041
200.589, 810.436
201.071, 621.667
201.553, 457.017
202.036, 314.014
202.518, 191.257
203.000, 89.985
203.482, 1.843
203.964, 89.977
204.446, 171.620
204.928, 224.256
205.410, 243.385
205.893, 244.711
206.375, 242.646
206.857, 238.217
207.339, 227.541
207.821, 212.607
208.303, 192.759
208.785, 150.355
209.267, 77.938
209.749, 5.106
210.232, 74.619
210.714, 123.173
211.196, 186.766
211.678, 280.328
212.160, 406.109
212.642, 514.360
213.124, 597.212
213.606, 675.708
214.089, 779.292
214.571, 923.863
215.053, 1054.656
215.535, 1153.226
216.017, 1215.251
216.499, 1288.566
216.981, 1382.435
217.463, 1478.610
217.945, 1551.667
218.428, 1596.953
218.910, 1624.606
219.392, 1635.774
219.874, 1628.968
220.356, 1609.785
220.838, 1569.505
221.320, 1522.940
221.802, 1498.982
222.285, 1513.553
222.767, 1519.855
223.249, 1501.451
223.731, 1453.660
224.213, 1396.987
224.695, 1320.227
225.177, 1241.399
225.659, 1192.935
226.141, 1181.237
226.624, 1190.631
227.106, 1217.617
227.588, 1266.967
228.070, 1318.864
228.552, 1369.450
229.034, 1423.840
229.516, 1492.440
229.998, 1578.176
230.480, 1672.809
230.963, 1770.816
231.445, 1862.545
231.927, 1982.443
232.409, 2145.149
232.891, 2330.148
233.373, 2488.900
233.855, 2602.850
234.337, 2716.047
234.820, 2847.145
235.302, 3002.332
235.784, 3166.220
236.266, 3346.046
236.748, 3533.179
237.230, 3702.011
237.712, 3843.112
238.194, 3982.568
238.676, 4131.951
239.159, 4299.511
239.641, 4461.344
240.123, 4616.366
240.605, 4765.759
241.087, 4914.129
241.569, 5073.698
242.051, 5218.551
242.533, 5333.683
243.016, 5408.114
243.498, 5479.066
243.980, 5553.366
244.462, 5624.195
244.944, 5666.363
245.426, 5661.130
245.908, 5651.952
246.390, 5664.422
246.872, 5722.064
247.355, 5746.997
247.837, 5728.327
248.319, 5674.893
248.801, 5614.121
249.283, 5530.619
249.765, 5461.023
250.247, 5426.929
250.729, 5446.197
251.212, 5461.962
251.694, 5475.476
252.176, 5484.129
252.658, 5473.940
253.140, 5426.627
253.622, 5389.667
254.104, 5388.318
254.586, 5431.043
255.068, 5491.614
255.551, 5572.733
256.033, 5670.828
256.515, 5770.735
256.997, 5866.735
257.479, 5974.767
257.961, 6104.282
258.443, 6259.263
258.925, 6427.272
259.408, 6609.538
259.890, 6804.479
260.372, 7013.768
260.854, 7241.551
261.336, 7475.623
261.818, 7714.484
262.300, 7963.272
262.782, 8192.365
263.264, 8391.887
263.746, 8574.174
264.229, 8777.780
264.711, 9023.720
265.193, 9249.555
265.675, 9423.370
266.157, 9538.036
266.639, 9622.240
267.121, 9676.710
267.603, 9702.184
268.086, 9701.292
268.568, 9676.239
269.050, 9620.620
269.532, 9531.562
270.014, 9409.553
270.496, 9255.234
270.978, 9069.390
271.460, 8855.861
271.943, 8613.636
272.425, 8334.316
272.907, 8061.199
273.389, 7825.646
273.871, 7641.006
274.353, 7406.498
274.835, 7097.476
275.317, 6756.121
275.799, 6478.616
276.282, 6278.433
276.764, 6097.656
277.246, 5906.855
277.728, 5706.045
278.210, 5512.789
278.692, 5328.016
279.174, 5153.577
279.656, 4994.081
280.138, 4849.147
280.621, 4724.799
281.103, 4625.277
281.585, 4549.893
282.067, 4489.940
282.549, 4449.005
283.031, 4418.263
283.513, 4371.609
283.995, 4306.322
284.478, 4267.328
284.960, 4283.220
285.442, 4350.319
285.924, 4427.403
286.406, 4514.674
286.888, 4608.591
287.370, 4701.534
287.852, 4793.439
288.335, 4896.607
288.817, 5017.991
289.299, 5155.783
289.781, 5306.906
290.263, 5474.459
290.745, 5646.537
291.227, 5797.701
291.709, 5932.545
292.191, 6083.687
292.674, 6279.932
293.156, 6503.582
293.638, 6701.063
294.120, 6870.083
294.602, 7023.120
295.084, 7170.066
295.566, 7311.972
296.048, 7447.301
296.530, 7573.797
297.013, 7694.893
297.495, 7822.405
297.977, 7959.186
298.459, 8081.761
298.941, 8167.457
299.423, 8223.013
299.905, 8266.303
300.387, 8314.973
300.870, 8349.960
301.352, 8341.068
301.834, 8288.146
302.316, 8208.755
302.798, 8119.057
303.280, 8013.081
303.762, 7876.624
304.244, 7694.994
304.727, 7488.392
305.209, 7285.920
305.691, 7085.925
306.173, 6862.873
306.655, 6580.874
307.137, 6272.758
307.619, 5991.360
308.101, 5770.302
308.583, 5561.449
309.065, 5331.100
309.548, 5080.458
310.030, 4826.856
310.512, 4578.209
310.994, 4333.129
311.476, 4089.225
311.958, 3840.848
312.440, 3602.123
312.922, 3382.431
313.405, 3178.859
313.887, 2976.717
314.369, 2749.498
314.851, 2532.170
315.333, 2354.570
315.815, 2241.334
316.297, 2131.677
316.779, 1996.580
317.262, 1846.517
317.744, 1702.454
318.226, 1574.111
318.708, 1454.557
319.190, 1337.343
319.672, 1217.767
320.154, 1110.498
320.636, 1025.108
321.118, 954.240
321.601, 884.846
322.083, 812.345
322.565, 741.543
323.047, 676.693
323.529, 620.403
324.011, 559.302
324.493, 478.348
324.975, 395.059
325.457, 332.136
325.940, 311.445
326.422, 292.293
326.904, 263.694
327.386, 221.657
327.868, 187.284
328.350, 170.846
328.832, 156.687
329.314, 129.975
329.797, 79.740
330.279, 29.481
330.761, 21.671
331.243, 74.677
331.725, 100.572
332.207, 81.330
332.689, 51.479
333.171, 37.359
333.654, 43.039
334.136, 57.392
334.618, 83.943
335.100, 119.119
335.582, 140.223
336.064, 141.304
336.546, 137.566
337.028, 140.121
337.510, 152.670
337.992, 155.907
338.475, 144.330
338.957, 124.438
339.439, 116.476
339.921, 123.072
340.403, 132.132
340.885, 135.814
341.367, 133.767
341.849, 136.583
342.332, 146.130
342.814, 159.099
343.296, 171.316
343.778, 182.849
344.260, 189.599
344.742, 187.406
345.224, 177.560
345.706, 167.108
346.189, 155.110
346.671, 146.507
347.153, 150.360
347.635, 164.936
348.117, 177.656
348.599, 188.183
349.081, 192.452
349.563, 175.468
350.045, 136.497
350.528, 94.954
351.010, 66.557
351.492, 49.644
351.974, 40.482
352.456, 42.442
352.938, 47.936
353.420, 46.754
353.902, 39.653
354.384, 32.500
354.867, 29.720
355.349, 29.159
355.831, 28.475
356.313, 29.132
356.795, 25.998
357.277, 11.210
357.759, 11.635
358.241, 31.110
358.724, 40.286
359.206, 44.239
359.688, 45.740
360.170, 43.252
360.652, 44.169
361.134, 54.780
361.616, 70.890
362.098, 84.998
362.581, 88.820
363.063, 94.564
363.545, 109.240
364.027, 135.333
364.509, 159.541
364.991, 176.827
365.473, 191.160
365.955, 206.905
366.437, 235.132
366.919, 254.362
367.402, 254.069
367.884, 232.822
368.366, 223.608
368.848, 229.566
369.330, 247.177
369.812, 275.310
370.294, 335.197
370.776, 375.261
371.259, 380.549
371.741, 359.992
372.223, 361.743
372.705, 399.041
373.187, 440.909
373.669, 471.727
374.151, 488.983
374.633, 501.292
375.116, 506.163
375.598, 508.045
376.080, 516.431
376.562, 531.892
377.044, 551.752
377.526, 577.567
378.008, 609.969
378.490, 631.516
378.973, 640.014
379.455, 643.357
379.937, 648.938
380.419, 656.817
380.901, 673.532
381.383, 704.996
381.865, 746.288
382.347, 779.128
382.829, 803.214
383.311, 826.599
383.794, 859.101
384.276, 897.217
384.758, 930.228
385.240, 953.373
385.722, 972.711
386.204, 995.192
386.686, 1020.769
387.168, 1050.726
387.651, 1094.894
388.133, 1139.510
388.615, 1163.233
389.097, 1156.760
389.579, 1149.793
390.061, 1171.316
390.543, 1211.537
391.025, 1250.036
391.508, 1272.562
391.990, 1291.199
392.472, 1315.633
392.954, 1347.345
393.436, 1371.496
393.918, 1376.385
394.400, 1374.153
394.882, 1377.301
395.364, 1395.925
395.847, 1413.116
396.329, 1422.154
396.811, 1424.743
397.293, 1435.062
397.775, 1468.521
398.257, 1500.181
398.739, 1515.761
399.221, 1495.911
399.703, 1483.891
400.186, 1486.645
400.668, 1496.514
401.150, 1492.482
401.632, 1457.204
402.114, 1431.236
402.596, 1433.692
403.078, 1475.747
403.560, 1501.318
404.043, 1504.148
404.525, 1497.351
405.007, 1497.520
405.489, 1504.726
405.971, 1516.757
406.453, 1538.682
406.935, 1566.749
407.417, 1569.711
407.900, 1543.650
408.382, 1517.075
408.864, 1511.871
409.346, 1526.811
409.828, 1554.531
410.310, 1598.241
410.792, 1646.173
411.274, 1677.149
411.756, 1692.627
412.238, 1706.780
412.721, 1726.797
413.203, 1751.226
413.685, 1780.106
414.167, 1814.216
414.649, 1846.523
415.131, 1867.036
415.613, 1882.386
416.095, 1904.288
416.578, 1940.261
417.060, 1982.390
417.542, 2027.923
418.024, 2075.900
418.506, 2119.560
418.988, 2154.918
419.470, 2185.051
419.952, 2211.136
420.435, 2222.446
420.917, 2243.140
421.399, 2289.789
421.881, 2354.219
422.363, 2410.431
422.845, 2444.843
423.327, 2475.843
423.809, 2512.907
424.291, 2565.473
424.774, 2602.795
425.256, 2600.381
425.738, 2590.273
426.220, 2616.562
426.702, 2714.265
427.184, 2796.018
427.666, 2838.381
428.148, 2842.355
428.630, 2861.205
429.113, 2892.599
429.595, 2940.661
430.077, 3013.667
430.559, 3116.417
431.041, 3212.550
431.523, 3294.303
432.005, 3371.200
432.487, 3471.714
432.970, 3597.469
433.452, 3721.522
433.934, 3821.331
434.416, 3904.721
434.898, 4010.925
435.380, 4142.920
435.862, 4294.346
436.344, 4426.956
436.827, 4568.084
437.309, 4808.548
437.791, 5297.931
438.273, 5817.079
438.755, 6074.649
439.237, 6098.303
439.719, 6093.214
440.201, 6163.961
440.683, 6289.425
441.165, 6452.168
441.648, 6661.630
442.130, 6880.980
442.612, 7093.875
443.094, 7302.751
443.576, 7510.649
444.058, 7729.461
444.540, 7937.769
445.022, 8125.205
445.505, 8290.545
445.987, 8446.304
446.469, 8601.123
446.951, 8746.339
447.433, 8875.738
447.915, 9005.234
448.397, 9095.481
448.879, 9131.158
449.362, 9122.548
449.844, 9119.537
450.326, 9132.821
450.808, 9133.686
451.290, 9105.812
451.772, 9044.028
452.254, 8978.998
452.736, 8913.289
453.218, 8840.994
453.701, 8750.027
454.183, 8640.979
454.665, 8530.394
455.147, 8424.015
455.629, 8321.056
456.111, 8215.885
456.593, 8109.030
457.075, 8015.851
457.557, 7946.651
458.040, 7901.952
458.522, 7886.911
459.004, 7910.029
459.486, 7944.367
459.968, 7950.158
460.450, 7943.871
460.932, 7967.317
461.414, 8050.475
461.897, 8165.723
462.379, 8295.355
462.861, 8440.025
463.343, 8595.482
463.825, 8751.494
464.307, 8921.874
464.789, 9118.344
465.271, 9386.393
465.754, 9640.881
466.236, 9840.856
466.718, 10005.492
467.200, 10224.512
467.682, 10555.799
468.164, 10894.769
468.646, 11202.804
469.128, 11471.417
469.610, 11737.287
470.093, 11995.214
470.575, 12252.445
471.057, 12519.255
471.539, 12801.704
472.021, 13069.299
472.503, 13316.841
472.985, 13544.235
473.467, 13759.931
473.949, 13962.511
474.432, 14146.161
474.914, 14300.347
475.396, 14430.437
475.878, 14568.432
476.360, 14725.229
476.842, 14861.946
477.324, 14918.338
477.806, 14912.624
478.289, 14896.058
478.771, 14905.192
479.253, 14906.837
479.735, 14876.368
480.217, 14812.399
480.699, 14698.677
481.181, 14497.361
481.663, 14257.187
482.146, 14019.209
482.628, 13810.356
483.110, 13571.298
483.592, 13294.646
484.074, 12970.712
484.556, 12586.330
485.038, 12065.399
485.520, 11549.847
486.002, 11085.750
486.484, 10683.527
486.967, 10251.723
487.449, 9769.624
487.931, 9275.987
488.413, 8804.928
488.895, 8357.985
489.377, 7919.877
489.859, 7499.167
490.341, 7089.484
490.824, 6677.287
491.306, 6263.086
491.788, 5871.802
492.270, 5524.523
492.752, 5214.545
493.234, 4910.500
493.716, 4617.002
494.198, 4335.864
494.681, 4074.690
495.163, 3830.028
495.645, 3600.647
496.127, 3382.396
496.609, 3179.879
497.091, 3006.021
497.573, 2852.971
498.055, 2695.023
498.537, 2502.739
499.020, 2315.016
499.502, 2159.079
499.984, 2041.676
500.466, 1931.452
500.948, 1820.555
501.430, 1712.125
501.912, 1606.320
502.394, 1495.752
502.876, 1398.561
503.359, 1329.472
503.841, 1276.506
504.323, 1195.379
504.805, 1054.492
505.287, 929.525
505.769, 854.809
506.251, 839.420
506.733, 798.287
507.216, 721.672
507.698, 638.045
508.180, 581.761
508.662, 552.917
509.144, 517.050
509.626, 464.638
510.108, 404.155
510.590, 352.616
511.073, 309.594
511.555, 271.356
512.037, 236.578
512.519, 205.213
513.001, 177.762
513.483, 154.033
513.965, 132.345
514.447, 111.800
514.929, 92.538
515.412, 74.450
515.894, 56.604
516.376, 39.256
516.858, 25.784
517.340, 14.561
517.822, 1.186
518.304, 33.831
518.786, 62.733
519.268, 76.709
519.751, 69.430
520.233, 77.099
520.715, 113.704
521.197, 152.151
521.679, 164.886
522.161, 139.229
522.643, 130.850
523.125, 153.316
523.607, 191.667
524.090, 205.024
524.572, 191.329
525.054, 180.455
525.536, 194.792
526.018, 224.258
526.500, 229.376
526.982, 209.284
527.464, 185.595
527.947, 177.940
528.429, 180.263
528.911, 183.091
529.393, 185.924
529.875, 185.053
530.357, 177.534
530.839, 164.224
531.321, 147.064
531.804, 121.564
532.286, 96.771
532.768, 79.077
533.250, 69.167
533.732, 54.432
534.214, 35.835
534.696, 9.573
535.178, 28.198
535.661, 91.587
536.143, 139.437
536.625, 164.614
537.107, 178.244
537.589, 200.197
538.071, 231.167
538.553, 267.622
539.035, 311.107
539.517, 359.273
540.000, 400.021
540.482, 432.942
540.964, 467.576
541.446, 494.507
541.928, 530.082
542.410, 555.142
542.892, 606.619
543.374, 651.689
543.856, 690.697
544.339, 705.486
544.821, 751.563
545.303, 785.107
545.785, 818.142
546.267, 861.735
546.749, 889.171
547.231, 925.358
547.713, 919.987
548.195, 950.722
548.678, 972.697
549.160, 986.382
549.642, 966.936
550.124, 990.276
550.606, 1000.425
551.088, 1007.466
551.570, 1024.543
552.052, 1035.307
552.534, 1036.098
553.017, 1029.875
553.499, 1023.699
553.981, 1017.644
554.463, 1012.068
554.945, 1014.435
555.427, 1016.869
555.909, 992.416
556.391, 940.500
556.874, 886.404
557.356, 850.108
557.838, 825.230
558.320, 803.811
558.802, 787.458
559.284, 767.470
559.766, 739.847
560.248, 705.297
560.731, 665.001
561.213, 610.909
561.695, 560.066
562.177, 519.133
562.659, 488.162
563.141, 456.851
563.623, 425.560
564.105, 392.826
564.588, 357.391
565.070, 317.536
565.552, 279.536
566.034, 243.046
566.516, 209.607
566.998, 180.785
567.480, 156.756
567.962, 139.892
568.444, 133.945
568.927, 131.725
569.409, 118.529
569.891, 96.286
570.373, 75.974
570.855, 63.189
571.337, 55.950
571.819, 50.550
572.301, 46.759
572.783, 50.456
573.266, 76.850
573.748, 105.743
574.230, 118.697
574.712, 96.135
575.194, 80.272
575.676, 75.007
576.158, 80.741
576.640, 100.196
577.122, 143.145
577.605, 184.431
578.087, 215.372
578.569, 236.738
579.051, 264.409
579.533, 299.885
580.015, 342.080
580.497, 388.255
580.979, 437.137
581.461, 487.316
581.944, 540.213
582.426, 596.453
582.908, 656.721
583.390, 718.057
583.872, 778.345
584.354, 838.357
584.836, 900.292
585.318, 958.938
585.801, 1018.604
586.283, 1092.677
586.765, 1194.174
587.247, 1303.197
587.729, 1413.955
588.211, 1526.484
588.693, 1639.711
589.175, 1764.663
589.657, 1880.355
590.140, 1970.950
590.622, 2023.227
591.104, 2089.667
591.586, 2172.490
592.068, 2268.590
592.550, 2379.859
593.032, 2506.372
593.515, 2619.954
593.997, 2710.048
594.479, 2789.152
594.961, 2886.820
595.443, 2996.325
595.925, 3084.681
596.407, 3118.908
596.889, 3131.664
597.371, 3159.891
597.854, 3205.473
598.336, 3229.910
598.818, 3212.405
599.300, 3168.094
599.782, 3106.809
600.264, 3017.348
600.746, 2932.189
601.228, 2860.367
601.710, 2789.731
602.193, 2704.354
602.675, 2599.715
603.157, 2487.205
603.639, 2362.917
604.121, 2235.022
604.603, 2134.141
605.085, 2061.860
605.567, 2004.666
606.049, 1963.152
606.532, 1930.410
607.014, 1882.000
607.496, 1817.126
607.978, 1771.331
608.460, 1792.900
608.942, 1842.079
609.424, 1870.627
609.906, 1860.892
610.388, 1847.485
610.871, 1839.312
611.353, 1838.475
611.835, 1777.768
612.317, 1796.144
612.799, 1795.328
613.281, 1776.341
613.763, 1684.792
614.245, 1686.957
614.728, 1660.228
615.210, 1505.048
615.692, 1451.627
616.174, 1489.741
616.656, 1470.715
617.138, 1390.084
617.620, 1290.123
618.102, 1190.657
618.584, 1098.531
619.067, 1039.569
619.549, 1024.594
620.031, 1015.562
620.513, 973.866
620.995, 918.648
621.477, 878.257
621.959, 879.131
622.442, 877.102
622.924, 854.798
623.406, 818.058
623.888, 785.025
624.370, 749.057
624.852, 727.338
625.334, 726.889
625.816, 746.797
626.298, 766.468
626.781, 786.047
627.263, 806.977
627.745, 830.020
628.227, 854.704
628.709, 877.555
629.191, 897.682
629.673, 921.092
630.155, 959.425
630.638, 1005.509
631.120, 1043.771
631.602, 1061.021
632.084, 1081.740
632.566, 1134.942
633.048, 1202.965
633.530, 1249.791
634.012, 1241.145
634.494, 1233.256
634.977, 1246.394
635.459, 1278.854
635.941, 1304.295
636.423, 1318.665
636.905, 1332.283
637.387, 1353.428
637.869, 1382.832
638.351, 1394.833
638.833, 1388.732
639.316, 1367.785
639.798, 1329.505
640.280, 1278.747
640.762, 1229.612
641.244, 1182.568
641.726, 1142.943
642.208, 1127.391
642.690, 1120.317
643.172, 1094.449
643.655, 1018.425
644.137, 942.068
644.619, 887.090
645.101, 849.179
645.583, 810.743
646.065, 774.481
646.547, 734.566
647.029, 684.494
647.511, 621.935
647.994, 574.786
648.476, 548.437
648.958, 524.722
649.440, 489.135
649.922, 442.698
650.404, 404.299
650.886, 375.691
651.369, 352.444
651.851, 333.096
652.333, 315.754
652.815, 296.628
653.297, 273.482
653.779, 250.258
654.261, 232.628
654.743, 215.994
655.225, 192.993
655.708, 147.681
656.190, 112.810
656.672, 98.430
657.154, 100.303
657.636, 101.152
658.118, 102.529
658.600, 100.226
659.082, 91.579
659.565, 76.948
660.047, 61.800
660.529, 45.540
661.011, 34.258
661.493, 36.309
661.975, 45.924
662.457, 52.113
662.939, 54.086
663.421, 49.559
663.904, 38.383
664.386, 49.657
664.868, 55.519
665.350, 56.232
665.832, 36.357
666.314, 42.996
666.796, 38.985
667.278, 34.541
667.760, 44.916
668.243, 37.906
668.725, 38.284
669.207, 30.343
669.689, 30.622
670.171, 39.600
670.653, 48.218
671.135, 53.746
671.617, 54.944
672.099, 46.223
672.582, 28.521
673.064, 12.279
673.546, 9.464
674.028, 8.970
674.510, 2.410
674.992, 29.682
675.474, 47.045
675.956, 38.061
676.439, 20.618
676.921, 9.523
677.403, 5.177
677.885, 7.492
678.367, 20.727
678.849, 35.803
679.331, 36.899
679.813, 22.937
680.295, 13.033
680.778, 12.039
681.260, 16.649
681.742, 24.818
682.224, 34.577
682.706, 37.998
683.188, 26.200
683.670, 10.723
684.153, 0.691
684.635, 8.054
685.117, 12.205
685.599, 11.931
686.081, 9.851
686.563, 6.240
687.045, 0.804
687.527, 1.543
688.009, 0.628
688.492, 3.659
688.974, 5.224
689.456, 5.331
689.938, 4.922
690.420, 4.000
690.902, 3.029
691.384, 0.352
691.866, 3.106
692.348, 3.683
692.831, 27.749
693.313, 46.601
693.795, 34.966
694.277, 10.133
694.759, 2.381
695.241, 23.024
695.723, 39.630
696.205, 32.551
696.688, 10.884
697.170, 4.158
697.652, 13.589
698.134, 12.726
698.616, 5.481
699.098, 33.699
699.580, 38.593
700.062, 20.986
700.544, 3.091
701.027, 0.950
701.509, 3.050
701.991, 10.860
702.473, 21.535
702.955, 22.381
703.437, 8.126
703.919, 40.964
704.401, 54.105
704.883, 38.014
705.366, 25.325
705.848, 21.441
706.330, 19.259
706.812, 12.928
707.294, 1.259
707.776, 9.643
708.258, 20.351
708.740, 27.652
709.222, 24.450
709.705, 13.211
710.187, 4.975
710.669, 3.046
711.151, 4.355
711.633, 9.111
712.115, 14.599
712.597, 15.624
713.080, 0.662
713.562, 10.134
714.044, 2.451
714.526, 30.137
715.008, 42.521
715.490, 31.125
715.972, 19.089
716.454, 13.185
716.936, 12.507
717.419, 10.924
717.901, 8.213
718.383, 8.510
718.865, 15.123
719.347, 26.105
719.829, 41.589
720.311, 60.999
720.793, 73.741
721.276, 66.810
721.758, 54.537
722.240, 47.656
722.722, 48.106
723.204, 52.137
723.686, 65.510
724.168, 77.260
724.650, 78.759
725.132, 66.589
725.615, 56.309
726.097, 47.655
726.579, 42.195
727.061, 43.370
727.543, 49.845
728.025, 55.182
728.507, 56.874
728.989, 59.860
729.471, 75.620
729.954, 94.652
730.436, 101.058
730.918, 73.615
731.400, 50.483
731.882, 44.664
732.364, 51.314
732.846, 56.013
733.328, 59.285
733.810, 61.851
734.293, 63.368
734.775, 64.575
735.257, 70.436
735.739, 80.485
736.221, 85.421
736.703, 74.232
737.185, 59.011
737.667, 61.867
738.149, 79.229
738.632, 92.359
739.114, 85.321
739.596, 75.366
740.078, 73.880
740.560, 83.002
741.042, 88.999
741.524, 90.527
742.006, 89.722
742.489, 85.698
742.971, 77.502
743.453, 77.495
743.935, 86.857
744.417, 98.614
744.899, 103.799
745.381, 106.480
745.863, 118.915
746.346, 144.030
746.828, 167.121
747.310, 181.250
747.792, 186.067
748.274, 179.823
748.756, 149.981
749.238, 131.343
749.720, 133.684
750.203, 145.606
750.685, 156.863
751.167, 170.643
751.649, 166.221
752.131, 133.711
752.613, 96.559
753.095, 99.292
753.577, 131.786
754.059, 157.119
754.542, 159.791
755.024, 155.948
755.506, 159.978
755.988, 168.645
756.470, 175.513
756.952, 175.325
757.434, 174.086
757.916, 171.820
758.398, 169.313
758.881, 170.638
759.363, 179.167
759.845, 182.588
760.327, 173.619
760.809, 158.575
761.291, 160.113
761.773, 174.375
762.255, 179.249
762.737, 153.368
763.220, 120.593
763.702, 103.930
764.184, 102.503
764.666, 107.004
765.148, 122.269
765.630, 135.454
766.112, 138.730
766.594, 132.147
767.076, 129.646
767.559, 133.278
768.041, 135.356
768.523, 130.078
769.005, 118.857
769.487, 112.429
769.969, 110.683
770.451, 108.329
770.933, 99.991
771.416, 88.431
771.898, 76.424
772.380, 63.331
772.862, 56.675
773.344, 69.722
773.826, 82.481
774.308, 80.430
774.790, 58.927
775.273, 36.539
775.755, 9.420
776.237, 10.148
776.719, 7.498
777.201, 14.420
777.683, 36.219
778.165, 56.692
778.647, 71.477
779.130, 73.643
779.612, 68.633
780.094, 64.148
780.576, 63.646
781.058, 59.287
781.540, 44.718
782.022, 26.977
782.504, 12.599
782.986, 1.922
783.469, 2.728
783.951, 15.854
784.433, 39.574
784.915, 48.169
785.397, 43.448
785.879, 35.144
786.361, 23.390
786.843, 14.481
787.325, 19.251
787.808, 29.994
788.290, 34.786
788.772, 21.438
789.254, 11.737
789.736, 11.074
790.218, 17.174
790.700, 28.025
791.182, 48.025
791.664, 58.094
792.147, 51.667
792.629, 38.090
793.111, 38.887
793.593, 50.171
794.075, 52.682
794.557, 31.739
795.039, 9.294
795.521, 5.059
796.003, 13.693
796.486, 23.357
796.968, 27.891
797.450, 36.671
797.932, 59.249
798.414, 86.203
798.896, 87.364
799.378, 55.957
799.860, 32.705
800.343, 33.666
800.825, 47.356
801.307, 47.381
801.789, 37.317
802.271, 31.624
802.753, 43.448
803.235, 56.829
803.717, 59.901
804.200, 55.356
804.682, 53.051
805.164, 57.247
805.646, 61.642
806.128, 66.747
806.610, 70.778
807.092, 63.147
807.574, 42.346
808.057, 26.465
808.539, 25.208
809.021, 33.095
809.503, 40.717
809.985, 48.522
810.467, 58.443
810.949, 80.577
811.431, 96.608
811.913, 90.775
812.396, 66.331
812.878, 54.629
813.360, 63.786
813.842, 73.978
814.324, 78.250
814.806, 78.119
815.288, 81.964
815.770, 89.598
816.252, 95.963
816.735, 94.987
817.217, 93.130
817.699, 101.184
818.181, 116.839
818.663, 127.738
819.145, 124.273
819.627, 119.100
820.109, 116.002
820.591, 115.414
821.074, 123.833
821.556, 146.681
822.038, 162.091
822.520, 154.867
823.002, 133.179
823.484, 125.079
823.966, 130.033
824.448, 142.278
824.931, 169.550
825.413, 193.484
825.895, 193.020
826.377, 171.181
826.859, 159.825
827.341, 176.184
827.823, 193.769
828.305, 204.184
828.787, 208.160
829.270, 212.464
829.752, 216.982
830.234, 223.573
830.716, 241.368
831.198, 258.620
831.680, 243.169
832.162, 202.147
832.644, 174.996
833.127, 196.485
833.609, 224.298
834.091, 236.291
834.573, 232.229
835.055, 232.019
835.537, 240.330
836.019, 241.600
836.501, 224.548
836.984, 197.796
837.466, 203.884
837.948, 240.066
838.430, 269.831
838.912, 266.029
839.394, 249.068
839.876, 233.021
840.358, 219.806
840.841, 216.804
841.323, 243.970
841.805, 263.838
842.287, 259.788
842.769, 236.346
843.251, 228.207
843.733, 237.592
844.215, 251.041
844.697, 264.793
845.180, 273.360
845.662, 264.904
846.144, 244.109
846.626, 227.815
847.108, 228.728
847.590, 234.242
848.072, 238.444
848.554, 240.294
849.036, 239.570
849.519, 233.069
850.001, 231.762
850.483, 242.415
850.965, 257.640
851.447, 252.957
851.929, 231.384
852.411, 211.857
852.893, 201.627
853.375, 197.721
853.858, 203.557
854.340, 213.799
854.822, 213.862
855.304, 186.917
855.786, 164.617
856.268, 156.067
856.750, 157.882
857.232, 156.716
857.714, 150.998
858.197, 142.218
858.679, 128.890
859.161, 119.855
859.643, 134.048
860.125, 161.354
860.607, 178.824
861.089, 171.228
861.571, 158.912
862.054, 146.550
862.536, 135.558
863.018, 129.306
863.500, 129.799
863.982, 128.280
864.464, 122.387
864.946, 116.112
865.428, 118.146
865.911, 125.400
866.393, 126.403
866.875, 114.289
867.357, 102.066
867.839, 99.278
868.321, 102.342
868.803, 105.762
869.285, 106.205
869.768, 110.912
870.250, 124.602
870.732, 136.781
871.214, 130.836
871.696, 108.040
872.178, 89.453
872.660, 78.482
873.142, 75.079
873.624, 85.394
874.107, 99.586
874.589, 104.209
875.071, 89.872
875.553, 79.271
876.035, 77.962
876.517, 82.812
876.999, 93.813
877.481, 113.153
877.963, 119.316
878.446, 110.328
878.928, 93.138
879.410, 65.028
879.892, 36.806
880.374, 32.599
880.856, 59.189
881.338, 82.266
881.820, 81.269
882.302, 72.649
882.785, 68.790
883.267, 71.966
883.749, 68.953
884.231, 56.666
884.713, 47.290
885.195, 52.491
885.677, 67.721
886.159, 81.533
886.641, 93.028
887.124, 93.890
887.606, 65.237
888.088, 34.822
888.570, 23.428
889.052, 33.559
889.534, 39.794
890.016, 39.152
890.498, 39.293
890.981, 46.831
891.463, 57.758
891.945, 45.882
892.427, 14.354
892.909, 6.387
893.391, 12.062
893.873, 39.872
894.355, 55.462
894.838, 59.550
895.320, 58.613
895.802, 53.315
896.284, 42.936
896.766, 23.264
897.248, 0.392
897.730, 6.446
898.212, 1.960
898.695, 8.899
899.177, 7.042
899.659, 2.816
900.141, 5.435
900.623, 10.687
901.105, 10.503
901.587, 11.241
902.069, 19.881
902.551, 0.803
903.034, 26.612
903.516, 32.188
903.998, 14.698
904.480, 4.362
904.962, 23.066
905.444, 36.623
905.926, 36.464
906.408, 28.529
906.890, 22.492
907.373, 22.403
907.855, 19.284
908.337, 2.316
908.819, 12.503
909.301, 11.153
909.783, 10.938
910.265, 24.455
910.747, 28.460
911.229, 26.989
911.712, 21.042
912.194, 13.261
912.676, 6.380
913.158, 0.713
913.640, 1.064
914.122, 20.477
914.604, 36.540
915.086, 33.460
915.568, 11.440
916.051, 4.826
916.533, 16.797
917.015, 26.740
917.497, 20.750
917.979, 5.628
918.461, 7.487
918.943, 17.757
919.425, 21.523
919.908, 10.384
920.390, 0.484
920.872, 2.724
921.354, 0.546
921.836, 1.001
922.318, 9.362
922.800, 14.483
923.282, 12.612
923.765, 7.892
924.247, 7.284
924.729, 9.734
925.211, 12.463
925.693, 15.137
926.175, 16.950
926.657, 19.483
927.139, 19.967
927.622, 14.296
928.104, 0.907
928.586, 12.363
929.068, 19.487
929.550, 21.107
930.032, 8.919
930.514, 8.450
930.996, 6.988
931.478, 19.770
931.961, 37.665
932.443, 18.461
932.925, 9.721
933.407, 27.711
933.889, 35.089
934.371, 31.028
934.853, 12.448
935.335, 6.399
935.817, 14.047
936.300, 15.744
936.782, 27.242
937.264, 46.151
937.746, 59.369
938.228, 52.165
938.710, 45.509
939.192, 51.891
939.674, 67.288
940.156, 75.707
940.639, 76.328
941.121, 72.749
941.603, 62.892
942.085, 54.130
942.567, 62.733
943.049, 83.320
943.531, 102.357
944.013, 116.846
944.495, 126.397
944.978, 122.901
945.460, 118.244
945.942, 128.510
946.424, 159.537
946.906, 184.819
947.388, 202.178
947.870, 214.514
948.352, 221.244
948.835, 226.625
949.317, 240.652
949.799, 265.539
950.281, 284.809
950.763, 282.621
951.245, 281.241
951.727, 292.221
952.209, 315.401
952.692, 341.450
953.174, 370.476
953.656, 399.084
954.138, 424.396
954.620, 448.101
955.102, 471.559
955.584, 495.681
956.066, 523.391
956.549, 549.845
957.031, 586.566
957.513, 645.495
957.995, 714.229
958.477, 763.776
958.959, 792.865
959.441, 812.854
959.923, 823.495
960.405, 838.952
960.888, 873.884
961.370, 923.377
961.852, 980.544
962.334, 1045.734
962.816, 1112.874
963.298, 1179.351
963.780, 1249.632
964.262, 1331.159
964.744, 1424.180
965.227, 1487.271
965.709, 1517.766
966.191, 1560.736
966.673, 1664.309
967.155, 1789.119
967.637, 1892.928
968.119, 1973.394
968.601, 2071.787
969.083, 2206.383
969.566, 2343.390
970.048, 2466.469
970.530, 2586.083
971.012, 2735.607
971.494, 2914.551
971.976, 3102.204
972.458, 3297.600
972.940, 3497.087
973.422, 3681.000
973.905, 3872.350
974.387, 4109.857
974.869, 4432.450
975.351, 4741.701
975.833, 5024.182
976.315, 5298.576
976.797, 5574.343
977.279, 5860.654
977.762, 6203.343
978.244, 6608.746
978.726, 7029.385
979.208, 7409.782
979.690, 7801.023
980.172, 8245.481
980.654, 8751.020
981.136, 9240.260
981.619, 9703.743
982.101, 10184.969
982.583, 10720.350
983.065, 11277.558
983.547, 11795.056
984.029, 12283.220
984.511, 12774.483
984.993, 13311.568
985.476, 13831.201
985.958, 14298.148
986.440, 14740.341
986.922, 15205.739
987.404, 15708.320
987.886, 16138.073
988.368, 16472.285
988.850, 16758.754
989.333, 17060.844
989.815, 17352.240
990.297, 17594.559
990.779, 17782.730
991.261, 17918.682
991.743, 17994.150
992.225, 18029.467
992.707, 18033.893
993.189, 18006.406
993.672, 17945.600
994.154, 17851.328
994.636, 17710.873
995.118, 17481.318
995.600, 17235.025
996.082, 17037.850
996.564, 16870.936
997.046, 16674.512
997.528, 16439.891
998.011, 16167.207
998.493, 15845.988
998.975, 15507.804
999.457, 15210.109
999.939, 14941.536
1000.421, 14649.605
1000.903, 14313.013
1001.385, 13990.144
1001.867, 13706.848
1002.350, 13453.111
1002.832, 13211.382
1003.314, 12976.266
1003.796, 12793.304
1004.278, 12666.906
1004.760, 12579.273
1005.242, 12530.999
1005.724, 12507.812
1006.207, 12486.702
1006.689, 12470.660
1007.171, 12470.272
1007.653, 12483.729
1008.135, 12521.843
1008.617, 12578.158
1009.099, 12662.765
1009.581, 12792.327
1010.063, 12966.169
1010.546, 13195.481
1011.028, 13484.367
1011.510, 13818.587
1011.992, 14200.509
1012.474, 14614.091
1012.956, 15046.339
1013.438, 15491.928
1013.920, 15972.099
1014.403, 16482.852
1014.885, 17029.326
1015.367, 17639.398
1015.849, 18285.109
1016.331, 18879.918
1016.813, 19417.527
1017.295, 19863.891
1017.777, 20222.217
1018.259, 20462.199
1018.742, 20584.496
1019.224, 20567.801
1019.706, 20383.973
1020.188, 20043.816
1020.670, 19467.131
1021.152, 18609.125
1021.634, 17632.244
1022.116, 16717.912
1022.599, 15819.395
1023.081, 14855.491
1023.563, 13790.428
1024.045, 12767.358
1024.527, 11790.690
1025.009, 10884.599
1025.491, 10066.491
1025.973, 9331.046
1026.455, 8639.005
1026.938, 7993.935
1027.420, 7404.975
1027.902, 6891.569
1028.384, 6415.177
1028.866, 5946.050
1029.348, 5497.658
1029.830, 5085.652
1030.312, 4696.441
1030.794, 4382.797
1031.277, 4170.917
1031.759, 3991.544
1032.241, 3773.773
1032.723, 3526.023
1033.205, 3259.018
1033.687, 2970.855
1034.169, 2706.000
1034.651, 2486.233
1035.134, 2296.857
1035.616, 2134.192
1036.098, 1994.713
1036.580, 1856.835
1037.062, 1721.941
1037.544, 1606.658
1038.026, 1530.193
1038.508, 1461.689
1038.990, 1372.471
1039.473, 1270.822
1039.955, 1171.603
1040.437, 1062.589
1040.919, 984.938
1041.401, 949.462
1041.883, 921.683
1042.365, 869.485
1042.847, 797.485
1043.329, 709.575
1043.812, 608.806
1044.294, 528.357
1044.776, 500.721
1045.258, 483.414
1045.740, 462.314
1046.222, 435.005
1046.704, 385.871
1047.186, 313.743
1047.669, 260.399
1048.151, 245.211
1048.633, 236.412
1049.115, 193.606
1049.597, 139.357
1050.079, 103.390
1050.561, 102.730
1051.043, 94.444
1051.526, 77.479
1052.008, 54.415
1052.490, 23.933
1052.972, 10.744
1053.454, 41.912
1053.936, 68.298
1054.418, 82.966
1054.900, 70.553
1055.382, 59.073
1055.865, 60.281
1056.347, 69.498
1056.829, 79.979
1057.311, 91.919
1057.793, 99.093
1058.275, 99.297
1058.757, 101.160
1059.239, 117.660
1059.721, 137.534
1060.204, 148.286
1060.686, 146.560
1061.168, 147.535
1061.650, 155.112
1062.132, 156.266
1062.614, 141.037
1063.096, 118.179
1063.578, 109.770
1064.061, 112.485
1064.543, 117.159
1065.025, 126.105
1065.507, 128.367
1065.989, 118.153
1066.471, 101.686
1066.953, 82.029
1067.435, 59.166
1067.917, 48.042
1068.400, 49.870
1068.882, 52.129
1069.364, 51.145
1069.846, 41.422
1070.328, 10.872
1070.810, 36.213
1071.292, 63.213
1071.774, 60.558
1072.257, 64.260
1072.739, 83.505
1073.221, 112.174
1073.703, 146.520
1074.185, 181.927
1074.667, 209.496
1075.149, 223.699
1075.631, 241.568
1076.114, 265.064
1076.596, 296.421
1077.078, 342.276
1077.560, 398.353
1078.042, 434.741
1078.524, 453.437
1079.006, 470.335
1079.488, 490.040
1079.970, 515.685
1080.453, 546.008
1080.935, 585.489
1081.417, 643.884
1081.899, 730.743
1082.381, 785.594
1082.863, 798.303
1083.345, 814.144
1083.827, 881.420
1084.309, 974.620
1084.792, 1069.785
1085.274, 1164.454
1085.756, 1240.119
1086.238, 1271.526
1086.720, 1328.365
1087.202, 1441.225
1087.684, 1574.813
1088.166, 1645.972
1088.649, 1677.910
1089.131, 1737.513
1089.613, 1852.570
1090.095, 1966.842
1090.577, 2055.217
1091.059, 2136.830
1091.541, 2220.425
1092.023, 2306.555
1092.505, 2417.256
1092.988, 2551.517
1093.470, 2685.325
1093.952, 2804.408
1094.434, 2915.894
1094.916, 3016.915
1095.398, 3116.076
1095.880, 3230.286
1096.362, 3366.963
1096.844, 3496.956
1097.327, 3618.418
1097.809, 3732.680
1098.291, 3837.621
1098.773, 3939.736
1099.255, 4052.784
1099.737, 4176.354
1100.219, 4292.787
1100.701, 4397.979
1101.184, 4493.931
1101.666, 4581.797
1102.148, 4661.096
1102.630, 4728.912
1103.112, 4789.104
1103.594, 4853.344
1104.076, 4927.474
1104.558, 4996.638
1105.041, 5054.075
1105.523, 5103.189
1106.005, 5143.612
1106.487, 5176.356
1106.969, 5219.694
1107.451, 5272.442
1107.933, 5306.841
1108.415, 5282.879
1108.897, 5265.315
1109.380, 5324.430
1109.862, 5412.498
1110.344, 5450.290
1110.826, 5420.747
1111.308, 5385.199
1111.790, 5343.979
1112.272, 5308.508
1112.754, 5288.688
1113.236, 5282.607
1113.719, 5290.314
1114.201, 5309.600
1114.683, 5331.666
1115.165, 5357.111
1115.647, 5380.483
1116.129, 5400.898
1116.611, 5419.215
1117.093, 5427.141
1117.576, 5434.743
1118.058, 5471.943
1118.540, 5548.353
1119.022, 5618.999
1119.504, 5660.850
1119.986, 5696.342
1120.468, 5737.947
1120.950, 5781.428
1121.432, 5806.625
1121.915, 5814.167
1122.397, 5807.787
1122.879, 5781.896
1123.361, 5757.314
1123.843, 5741.764
1124.325, 5739.159
1124.807, 5760.075
1125.289, 5813.611
1125.771, 5802.439
1126.254, 5722.938
1126.736, 5650.555
1127.218, 5644.654
1127.700, 5658.292
1128.182, 5650.517
1128.664, 5629.232
1129.146, 5617.469
1129.628, 5621.566
1130.111, 5618.346
1130.593, 5604.021
1131.075, 5588.481
1131.557, 5573.736
1132.039, 5568.740
1132.521, 5590.527
1133.003, 5637.999
1133.485, 5685.323
1133.968, 5720.197
1134.450, 5766.258
1134.932, 5828.954
1135.414, 5906.611
1135.896, 6002.431
1136.378, 6111.553
1136.860, 6222.542
1137.342, 6336.030
1137.824, 6441.918
1138.307, 6528.122
1138.789, 6615.386
1139.271, 6709.367
1139.753, 6811.220
1140.235, 6929.227
1140.717, 7058.795
1141.199, 7184.062
1141.681, 7294.419
1142.163, 7401.654
1142.646, 7528.902
1143.128, 7638.612
1143.610, 7689.101
1144.092, 7676.718
1144.574, 7702.995
1145.056, 7766.611
1145.538, 7825.607
1146.020, 7855.312
1146.503, 7870.449
1146.985, 7893.362
1147.467, 7904.129
1147.949, 7863.752
1148.431, 7759.733
1148.913, 7669.640
1149.395, 7601.463
1149.877, 7526.420
1150.359, 7422.042
1150.842, 7296.208
1151.324, 7148.999
1151.806, 6983.655
1152.288, 6827.673
1152.770, 6687.877
1153.252, 6543.815
1153.734, 6392.638
1154.216, 6231.657
1154.698, 6046.257
1155.181, 5851.979
1155.663, 5672.527
1156.145, 5514.679
1156.627, 5344.777
1157.109, 5154.235
1157.591, 4963.634
1158.073, 4775.581
1158.555, 4598.981
1159.038, 4458.854
1159.520, 4342.055
1160.002, 4223.707
1160.484, 4100.352
1160.966, 3961.999
1161.448, 3791.183
1161.930, 3629.447
1162.412, 3504.095
1162.895, 3404.726
1163.377, 3300.911
1163.859, 3191.724
1164.341, 3076.521
1164.823, 2935.030
1165.305, 2817.452
1165.787, 2755.673
1166.269, 2704.224
1166.751, 2616.730
1167.234, 2501.032
1167.716, 2417.460
1168.198, 2365.118
1168.680, 2318.714
1169.162, 2272.304
1169.644, 2218.719
1170.126, 2146.183
1170.608, 2069.177
1171.090, 2011.531
1171.573, 1970.781
1172.055, 1924.033
1172.537, 1869.910
1173.019, 1808.406
1173.501, 1733.866
1173.983, 1657.137
1174.465, 1583.494
1174.947, 1513.826
1175.430, 1450.292
1175.912, 1393.609
1176.394, 1346.450
1176.876, 1312.326
1177.358, 1271.029
1177.840, 1193.006
1178.322, 1112.086
1178.804, 1057.261
1179.286, 1028.447
1179.769, 1012.705
1180.251, 1011.760
1180.733, 983.251
1181.215, 904.782
1181.697, 822.536
1182.179, 782.771
1182.661, 762.646
1183.143, 737.172
1183.625, 702.262
1184.108, 673.996
1184.590, 652.417
1185.072, 636.346
1185.554, 630.189
1186.036, 622.313
1186.518, 590.999
1187.000, 551.582
1187.482, 529.946
1187.965, 539.887
1188.447, 539.131
1188.929, 525.225
1189.411, 507.374
1189.893, 492.388
1190.375, 479.867
1190.857, 470.566
1191.339, 460.193
1191.822, 440.674
1192.304, 399.752
1192.786, 383.549
1193.268, 398.081
1193.750, 411.878
1194.232, 390.258
1194.714, 358.614
1195.196, 359.630
1195.678, 384.753
1196.161, 392.033
1196.643, 362.542
1197.125, 342.009
1197.607, 337.277
1198.089, 337.010
1198.571, 329.615
1199.053, 318.313
1199.535, 304.954
1200.017, 290.247
1200.500, 282.848
1200.982, 291.844
1201.464, 293.088
1201.946, 279.308
1202.428, 260.448
1202.910, 254.433
1203.392, 251.617
1203.874, 233.262
1204.357, 196.229
1204.839, 168.083
1205.321, 153.516
1205.803, 147.721
1206.285, 151.053
1206.767, 158.079
1207.249, 163.935
1207.731, 165.264
1208.214, 152.540
1208.696, 118.210
1209.178, 100.689
1209.660, 114.278
1210.142, 123.803
1210.624, 110.281
1211.106, 87.518
1211.588, 88.158
1212.070, 100.743
1212.552, 100.348
1213.035, 75.663
1213.517, 49.784
1213.999, 18.109
1214.481, 0.706
1214.963, 18.469
1215.445, 50.973
1215.927, 46.181
1216.409, 17.086
1216.892, 6.052
1217.374, 9.481
1217.856, 13.060
1218.338, 19.076
1218.820, 24.030
1219.302, 22.720
1219.784, 19.377
1220.266, 28.364
1220.749, 44.026
1221.231, 50.010
1221.713, 33.980
1222.195, 16.719
1222.677, 2.665
1223.159, 17.394
1223.641, 17.788
1224.123, 10.522
1224.605, 14.224
1225.088, 24.121
1225.570, 20.080
1226.052, 26.167
1226.534, 52.420
1227.016, 48.083
1227.498, 35.149
1227.980, 39.767
1228.462, 51.637
1228.944, 47.513
1229.427, 30.089
1229.909, 21.749
1230.391, 34.764
1230.873, 46.389
1231.355, 54.088
1231.837, 57.531
1232.319, 53.907
1232.801, 46.830
1233.284, 43.068
1233.766, 42.461
1234.248, 38.776
1234.730, 28.281
1235.212, 20.718
1235.694, 17.669
1236.176, 19.097
1236.658, 32.729
1237.141, 47.040
1237.623, 38.882
1238.105, 6.729
1238.587, 6.191
1239.069, 10.318
1239.551, 27.288
1240.033, 38.012
1240.515, 43.402
1240.997, 41.721
1241.480, 36.932
1241.962, 34.500
1242.444, 35.219
1242.926, 35.177
1243.408, 33.729
1243.890, 27.432
1244.372, 20.156
1244.854, 15.266
1245.337, 21.614
1245.819, 30.280
1246.301, 28.231
1246.783, 11.692
1247.265, 8.986
1247.747, 23.923
1248.229, 29.975
1248.711, 12.942
1249.193, 5.853
1249.676, 6.449
1250.158, 26.500
1250.640, 21.628
1251.122, 12.424
1251.604, 31.002
1252.086, 32.908
1252.568, 34.211
1253.050, 42.098
1253.532, 51.378
1254.015, 55.057
1254.497, 58.826
1254.979, 70.828
1255.461, 91.772
1255.943, 103.591
1256.425, 106.284
1256.907, 114.251
1257.389, 140.561
1257.872, 163.379
1258.354, 162.292
1258.836, 152.127
1259.318, 145.653
1259.800, 142.699
1260.282, 162.928
1260.764, 204.327
1261.246, 236.188
1261.729, 246.322
1262.211, 247.949
1262.693, 236.515
1263.175, 227.466
1263.657, 235.465
1264.139, 256.662
1264.621, 276.094
1265.103, 290.249
1265.585, 301.406
1266.068, 300.143
1266.550, 294.409
1267.032, 286.679
1267.514, 283.283
1267.996, 291.777
1268.478, 310.719
1268.960, 296.663
1269.442, 285.056
1269.924, 306.442
1270.407, 317.466
1270.889, 317.092
1271.371, 293.030
1271.853, 298.816
1272.335, 291.808
1272.817, 285.194
1273.299, 294.598
1273.781, 279.485
1274.264, 271.200
1274.746, 280.914
1275.228, 278.512
1275.710, 244.797
1276.192, 210.444
1276.674, 207.875
1277.156, 214.999
1277.638, 208.215
1278.120, 190.673
1278.603, 181.495
1279.085, 184.019
1279.567, 185.594
1280.049, 180.482
1280.531, 170.412
1281.013, 163.931
1281.495, 162.332
1281.977, 165.031
1282.459, 167.142
1282.942, 160.791
1283.424, 141.701
1283.906, 124.525
1284.388, 109.412
1284.870, 103.135
1285.352, 118.290
1285.834, 135.724
1286.316, 137.402
1286.799, 128.727
1287.281, 123.193
1287.763, 121.328
1288.245, 114.511
1288.727, 101.671
1289.209, 92.025
1289.691, 99.500
1290.173, 102.586
1290.656, 82.590
1291.138, 56.562
1291.620, 51.843
1292.102, 65.597
1292.584, 67.256
1293.066, 55.319
1293.548, 45.559
1294.030, 47.000
1294.512, 46.055
1294.995, 42.800
1295.477, 29.862
1295.959, 29.217
1296.441, 20.537
1296.923, 14.095
1297.405, 14.567
1297.887, 2.947
1298.369, 2.691
1298.851, 5.051
1299.334, 20.367
1299.816, 29.599
1300.298, 18.620
1300.780, 0.000
##END=



