##NAMES=Fluoro-richterite
##RRUFFID=R060290
##IDEAL CHEMISTRY=Na(NaCa)Mg_5_Si_8_O_22_F_2_
##LOCALITY=Koschka Valley, Badakshan Province, Afghanistan
##OWNER=RRUFF
##SOURCE=Herb Obodda
##DESCRIPTION=Tan colored transparent prismatic crystal
##STATUS=The identification of this mineral has been made only by X-ray diffraction.
##URL=rruff.info/R060290
194.1473, 0.0000000E+00
194.6294, 1.493164
195.1115, 0.2648930
195.5936, 0.1672360
196.0757, 0.4875490
196.5579, 0.6948240
197.0400, 0.1373290
197.5221, 0.9890140
198.0042, 2.637207
198.4863, 6.370728
198.9684, 12.27856
199.4506, 19.76733
199.9327, 28.13879
200.4148, 37.50293
200.8969, 46.87329
201.3790, 56.05103
201.8611, 64.96643
202.3433, 73.10498
202.8254, 80.04614
203.3075, 86.82593
203.7896, 95.45203
204.2717, 106.4183
204.7538, 116.9257
205.2360, 125.4858
205.7181, 131.7965
206.2002, 138.4795
206.6823, 145.1296
207.1644, 152.5500
207.6465, 163.1836
208.1287, 178.2936
208.6108, 191.8109
209.0929, 200.6200
209.5750, 203.8619
210.0571, 207.2202
210.5392, 210.6375
211.0214, 214.3627
211.5035, 218.9254
211.9856, 224.3904
212.4677, 230.4634
212.9498, 237.2433
213.4319, 244.9523
213.9140, 252.1481
214.3962, 257.8979
214.8783, 263.7461
215.3604, 273.7671
215.8425, 290.1295
216.3246, 305.8392
216.8067, 317.2423
217.2889, 322.2494
217.7710, 329.5409
218.2531, 339.6660
218.7352, 351.8516
219.2173, 364.7103
219.6994, 378.7570
220.1816, 392.5468
220.6637, 405.6627
221.1458, 418.0797
221.6279, 429.8551
222.1100, 440.4109
222.5921, 450.6212
223.0743, 463.3317
223.5564, 479.6117
224.0385, 496.5229
224.5206, 512.6926
225.0027, 528.9991
225.4848, 543.0720
225.9670, 553.7394
226.4491, 562.4114
226.9312, 573.1122
227.4133, 586.9899
227.8954, 601.0985
228.3775, 613.9830
228.8597, 626.5374
229.3418, 635.7009
229.8239, 641.7250
230.3060, 644.3669
230.7881, 643.3127
231.2702, 638.2692
231.7524, 629.4512
232.2345, 618.0081
232.7166, 603.2953
233.1987, 587.8844
233.6808, 571.1431
234.1629, 554.2970
234.6451, 536.0507
235.1272, 514.5652
235.6093, 490.1945
236.0914, 464.7916
236.5735, 437.5327
237.0556, 411.8774
237.5378, 387.5570
238.0199, 363.5061
238.5020, 342.2330
238.9841, 323.8044
239.4662, 307.4082
239.9483, 293.4100
240.4305, 283.0713
240.9126, 273.2747
241.3947, 264.5266
241.8768, 256.2374
242.3589, 246.4537
242.8410, 233.2250
243.3232, 221.4092
243.8053, 213.3508
244.2874, 210.5386
244.7695, 208.0212
245.2516, 206.6176
245.7337, 205.1116
246.2159, 200.7697
246.6980, 192.4160
247.1801, 182.8795
247.6622, 173.1533
248.1443, 162.9366
248.6264, 153.1400
249.1086, 144.1608
249.5907, 135.3868
250.0728, 125.3922
250.5549, 113.1892
251.0370, 101.5189
251.5191, 91.31677
252.0013, 83.61926
252.4834, 76.85168
252.9655, 71.37854
253.4476, 66.65161
253.9297, 61.60181
254.4118, 55.76965
254.8940, 50.49585
255.3761, 46.28223
255.8582, 43.28784
256.3403, 40.72083
256.8224, 38.75708
257.3046, 37.09985
257.7867, 35.26685
258.2688, 33.24036
258.7509, 31.13989
259.2330, 29.14294
259.7151, 27.40503
260.1973, 24.79382
260.6794, 20.80579
261.1615, 16.50317
261.6436, 13.45837
262.1257, 11.78955
262.6078, 11.07739
263.0900, 11.56311
263.5721, 13.49988
264.0542, 14.05969
264.5363, 12.77612
265.0184, 10.65295
265.5005, 9.061523
265.9827, 8.354980
266.4648, 7.057007
266.9469, 4.340332
267.4290, 0.1337890
267.9111, 2.263672
268.3932, 2.165771
268.8754, 1.324829
269.3575, 1.704590
269.8396, 3.511597
270.3217, 5.817261
270.8038, 8.804565
271.2859, 12.36682
271.7681, 13.81299
272.2502, 12.31909
272.7323, 10.40125
273.2144, 10.98438
273.6965, 14.62073
274.1786, 17.79358
274.6608, 20.12659
275.1429, 21.44019
275.6250, 19.97632
276.1071, 14.92151
276.5892, 9.409180
277.0714, 6.574219
277.5535, 6.657104
278.0356, 6.819214
278.5177, 6.403687
278.9998, 5.687988
279.4819, 6.293701
279.9641, 8.665649
280.4462, 10.39746
280.9283, 8.775391
281.4104, 3.659546
281.8925, 0.3536380
282.3746, 0.2609860
282.8568, 2.035767
283.3389, 1.959595
283.8210, 5.7861000E-02
284.3031, 3.147339
284.7852, 7.246460
285.2673, 12.19336
285.7495, 16.07568
286.2316, 18.30188
286.7137, 19.79785
287.1958, 22.86035
287.6779, 27.54041
288.1600, 31.68445
288.6422, 33.54553
289.1243, 33.47437
289.6064, 33.85693
290.0885, 34.97156
290.5706, 36.46436
291.0527, 38.12451
291.5349, 39.90637
292.0170, 40.95447
292.4991, 40.63147
292.9812, 39.18762
293.4633, 37.10938
293.9454, 34.21973
294.4276, 31.63440
294.9097, 30.90112
295.3918, 31.82019
295.8739, 33.36658
296.3560, 36.04602
296.8381, 38.87781
297.3203, 38.67432
297.8024, 35.02637
298.2845, 31.42529
298.7666, 32.57349
299.2487, 36.96655
299.7308, 40.09766
300.2130, 38.57007
300.6951, 35.22583
301.1772, 35.22388
301.6593, 38.54688
302.1414, 41.99390
302.6235, 42.35669
303.1057, 40.82910
303.5878, 39.69861
304.0699, 39.61011
304.5520, 40.44226
305.0341, 42.65491
305.5162, 46.02966
305.9984, 48.89807
306.4805, 48.68713
306.9626, 47.52917
307.4447, 48.60193
307.9268, 54.48206
308.4089, 60.58154
308.8911, 62.32886
309.3732, 60.59546
309.8553, 59.00647
310.3374, 59.91174
310.8195, 61.90356
311.3016, 63.54565
311.7838, 64.40125
312.2659, 65.15405
312.7480, 66.57629
313.2301, 68.22766
313.7122, 69.08118
314.1943, 66.60278
314.6765, 64.54370
315.1586, 66.05383
315.6407, 72.56885
316.1228, 79.12781
316.6049, 82.82837
317.0870, 85.07092
317.5692, 88.05664
318.0513, 93.08801
318.5334, 98.64612
319.0155, 104.3706
319.4976, 110.5146
319.9797, 115.1494
320.4619, 116.0453
320.9440, 115.6552
321.4261, 116.6746
321.9082, 121.0046
322.3903, 125.5884
322.8724, 129.2842
323.3546, 132.0348
323.8367, 135.5214
324.3188, 141.0405
324.8009, 146.9041
325.2830, 151.6270
325.7651, 155.1166
326.2473, 157.7739
326.7294, 159.0438
327.2115, 159.1615
327.6936, 160.3376
328.1757, 164.9156
328.6578, 168.8464
329.1400, 170.0392
329.6221, 163.3250
330.1042, 161.3337
330.5863, 166.9684
331.0684, 177.3462
331.5505, 184.0990
332.0327, 185.8308
332.5148, 185.7517
332.9969, 184.9407
333.4790, 183.0710
333.9611, 181.9869
334.4432, 181.9431
334.9254, 182.4121
335.4075, 182.5463
335.8896, 182.2766
336.3717, 181.9834
336.8538, 182.4047
337.3359, 183.9106
337.8180, 180.8158
338.3001, 171.1498
338.7823, 160.2594
339.2644, 155.0139
339.7465, 156.9253
340.2286, 157.0920
340.7107, 153.4137
341.1928, 146.2288
341.6750, 136.4949
342.1571, 123.2123
342.6392, 110.7379
343.1213, 103.3789
343.6034, 101.2092
344.0855, 97.97864
344.5677, 92.13025
345.0498, 85.16626
345.5319, 81.35791
346.0140, 80.81897
346.4961, 79.98083
346.9782, 75.95496
347.4604, 69.47815
347.9425, 64.17590
348.4246, 60.52734
348.9067, 57.71216
349.3888, 54.27100
349.8709, 50.46912
350.3531, 47.70776
350.8352, 47.17065
351.3173, 48.05200
351.7994, 49.08069
352.2815, 50.24902
352.7636, 51.02490
353.2458, 50.21375
353.7279, 48.62683
354.2100, 48.03784
354.6921, 50.14246
355.1742, 52.81335
355.6563, 53.52869
356.1385, 52.45117
356.6206, 51.58838
357.1027, 51.11414
357.5848, 52.04309
358.0669, 55.92273
358.5490, 65.22839
359.0312, 74.42029
359.5133, 79.74097
359.9954, 82.06628
360.4775, 84.25269
360.9596, 87.34485
361.4417, 90.94592
361.9239, 94.84094
362.4060, 98.96313
362.8881, 103.4645
363.3702, 109.2036
363.8523, 115.2040
364.3344, 119.9679
364.8166, 121.6064
365.2987, 123.3127
365.7808, 126.2501
366.2629, 130.6605
366.7450, 135.3026
367.2271, 140.8652
367.7093, 146.1707
368.1914, 150.1890
368.6735, 151.6400
369.1556, 153.2087
369.6377, 155.1667
370.1198, 157.5309
370.6020, 160.0834
371.0841, 164.2866
371.5662, 167.2852
372.0483, 167.3734
372.5304, 162.8248
373.0125, 158.5880
373.4947, 154.3850
373.9768, 150.6616
374.4589, 148.6807
374.9410, 149.2140
375.4231, 149.9585
375.9052, 150.0792
376.3874, 149.5132
376.8695, 148.8304
377.3516, 148.1145
377.8337, 147.2303
378.3158, 145.6538
378.7979, 143.1136
379.2801, 142.0580
379.7622, 143.6422
380.2443, 147.1824
380.7264, 149.6561
381.2085, 150.8671
381.6906, 152.1108
382.1728, 154.5354
382.6549, 158.0348
383.1370, 161.6033
383.6191, 165.1462
384.1012, 168.6625
384.5833, 171.3506
385.0655, 173.5582
385.5476, 178.2667
386.0297, 189.5693
386.5118, 204.0319
386.9939, 215.4518
387.4760, 223.1315
387.9582, 230.1176
388.4403, 239.0197
388.9224, 249.2535
389.4045, 259.7194
389.8866, 268.8934
390.3687, 278.8679
390.8509, 292.5635
391.3330, 309.9106
391.8151, 326.1799
392.2972, 336.8491
392.7793, 345.1218
393.2614, 354.5189
393.7436, 367.6688
394.2257, 379.5889
394.7078, 386.9371
395.1899, 391.2406
395.6720, 396.5588
396.1541, 407.2015
396.6363, 416.9827
397.1184, 422.6798
397.6005, 422.9319
398.0826, 422.1072
398.5647, 423.2690
399.0468, 423.0112
399.5290, 417.0986
400.0111, 400.2014
400.4932, 382.8604
400.9753, 366.5486
401.4574, 351.2175
401.9395, 336.7867
402.4217, 324.3866
402.9038, 311.6191
403.3859, 296.4888
403.8680, 277.5142
404.3501, 260.1404
404.8322, 245.4451
405.3144, 232.2871
405.7965, 217.5793
406.2786, 200.3608
406.7607, 184.5835
407.2428, 172.4639
407.7249, 164.0889
408.2071, 155.2166
408.6892, 145.5830
409.1713, 136.1084
409.6534, 128.2832
410.1355, 122.0295
410.6176, 115.2251
411.0998, 106.6055
411.5819, 97.38257
412.0640, 90.79810
412.5461, 86.80908
413.0282, 83.20850
413.5103, 77.51562
413.9925, 71.10718
414.4746, 67.31201
414.9567, 67.47583
415.4388, 67.95044
415.9209, 63.63281
416.4030, 56.55151
416.8852, 51.71533
417.3673, 54.52856
417.8494, 58.76562
418.3315, 59.01538
418.8136, 54.88892
419.2957, 50.10840
419.7779, 45.25171
420.2600, 41.39478
420.7421, 39.65063
421.2242, 42.91919
421.7063, 45.67920
422.1884, 46.39868
422.6706, 45.27319
423.1527, 43.16797
423.6348, 39.12476
424.1169, 35.08984
424.5990, 32.00293
425.0811, 30.34619
425.5633, 28.72803
426.0454, 27.33203
426.5275, 25.85254
427.0096, 23.76440
427.4917, 19.42310
427.9738, 17.06250
428.4560, 18.20068
428.9381, 22.66577
429.4202, 25.69800
429.9023, 26.75195
430.3844, 27.19507
430.8665, 28.25684
431.3487, 30.33838
431.8308, 30.17285
432.3129, 26.70532
432.7950, 21.82300
433.2771, 19.76123
433.7592, 20.61230
434.2414, 21.28613
434.7235, 19.75513
435.2056, 16.78174
435.6877, 15.73535
436.1698, 16.69775
436.6519, 18.18481
437.1341, 18.76611
437.6162, 18.66162
438.0983, 18.66846
438.5804, 19.48364
439.0625, 19.82153
439.5446, 18.08252
440.0268, 14.57129
440.5089, 10.35400
440.9910, 4.843018
441.4731, 0.3125000
441.9552, 3.511963
442.4373, 4.362793
442.9195, 4.500244
443.4016, 3.797607
443.8837, 3.130859
444.3658, 3.544189
444.8479, 7.182129
445.3300, 10.13037
445.8122, 10.96045
446.2943, 9.848633
446.7764, 8.390869
447.2585, 4.923828
447.7406, 2.636475
448.2227, 3.499023
448.7049, 11.06152
449.1870, 14.92212
449.6691, 13.40796
450.1512, 9.020264
450.6333, 5.736084
451.1154, 3.866211
451.5976, 2.288086
452.0797, 0.5515140
452.5618, 1.262207
453.0439, 1.352295
453.5260, 0.8222660
454.0081, 3.262451
454.4903, 4.202881
454.9724, 3.689941
455.4545, 3.787842
455.9366, 5.007080
456.4187, 6.439209
456.9008, 6.523682
457.3830, 5.338135
457.8651, 3.927979
458.3472, 2.410645
458.8293, 1.037598
459.3114, 0.6220700
459.7935, 1.172852
460.2757, 0.8569340
460.7578, 2.509033
461.2399, 7.395508
461.7220, 11.70972
462.2041, 15.13525
462.6862, 17.61011
463.1684, 18.42065
463.6505, 18.25024
464.1326, 18.58154
464.6147, 20.42480
465.0968, 22.57617
465.5789, 24.57080
466.0611, 26.47070
466.5432, 27.32788
467.0253, 24.68750
467.5074, 22.05811
467.9895, 22.38379
468.4716, 29.90137
468.9538, 35.21997
469.4359, 36.96606
469.9180, 36.09766
470.4001, 35.57446
470.8822, 35.42163
471.3643, 35.63184
471.8465, 36.31299
472.3286, 37.55615
472.8107, 38.94604
473.2928, 40.81348
473.7749, 42.00830
474.2570, 40.60352
474.7392, 36.65649
475.2213, 33.36914
475.7034, 31.24634
476.1855, 30.38745
476.6676, 31.64380
477.1497, 34.82153
477.6319, 37.79810
478.1140, 39.12305
478.5961, 39.49927
479.0782, 40.10620
479.5603, 41.01367
480.0424, 41.79370
480.5246, 42.54419
481.0067, 42.81470
481.4888, 41.91406
481.9709, 37.98047
482.4530, 34.71289
482.9352, 34.54785
483.4173, 36.67749
483.8994, 38.55273
484.3815, 40.09399
484.8636, 40.55859
485.3457, 39.38721
485.8279, 36.17993
486.3100, 32.92505
486.7921, 28.80688
487.2742, 25.21387
487.7563, 23.70435
488.2384, 26.00977
488.7206, 27.45410
489.2027, 26.89819
489.6848, 25.36768
490.1669, 26.48145
490.6490, 31.11670
491.1311, 34.63159
491.6133, 34.23096
492.0954, 30.05322
492.5775, 26.83105
493.0596, 24.55566
493.5417, 23.25854
494.0238, 23.45532
494.5060, 24.84839
494.9881, 25.82983
495.4702, 25.70752
495.9523, 25.29712
496.4344, 25.27905
496.9165, 25.83618
497.3987, 27.57129
497.8808, 33.42334
498.3629, 39.12354
498.8450, 38.73535
499.3271, 31.40942
499.8092, 26.94775
500.2914, 34.27661
500.7735, 45.40210
501.2556, 52.96802
501.7377, 51.05176
502.2198, 50.06421
502.7019, 53.58765
503.1841, 59.60327
503.6662, 62.74072
504.1483, 60.51025
504.6304, 57.98193
505.1125, 56.48267
505.5946, 55.94702
506.0768, 56.06860
506.5589, 56.49463
507.0410, 57.26099
507.5231, 58.60059
508.0052, 60.71802
508.4873, 63.70898
508.9695, 67.66919
509.4516, 71.92212
509.9337, 75.02295
510.4158, 77.01611
510.8979, 78.99463
511.3800, 81.67188
511.8622, 84.50830
512.3443, 86.46973
512.8264, 87.57153
513.3085, 88.26685
513.7906, 88.13916
514.2728, 88.02930
514.7549, 89.46631
515.2370, 93.48560
515.7191, 97.01685
516.2012, 97.96265
516.6833, 97.20459
517.1655, 96.15527
517.6476, 95.33813
518.1297, 94.23340
518.6118, 91.63281
519.0939, 87.83984
519.5760, 87.40430
520.0582, 95.29761
520.5403, 102.8511
521.0224, 106.4050
521.5045, 105.4612
521.9866, 101.5522
522.4688, 92.32202
522.9509, 82.68628
523.4330, 79.41870
523.9151, 83.83325
524.3972, 87.38989
524.8793, 88.10767
525.3615, 86.79761
525.8436, 85.56787
526.3257, 84.45996
526.8078, 83.14136
527.2899, 81.66602
527.7720, 79.84595
528.2542, 77.04419
528.7363, 73.22070
529.2184, 69.23657
529.7005, 66.42529
530.1826, 63.69800
530.6647, 59.30859
531.1469, 51.26978
531.6290, 43.99731
532.1111, 39.73462
532.5932, 37.98511
533.0753, 37.75098
533.5574, 41.25928
534.0396, 43.81714
534.5217, 43.63306
535.0038, 40.44873
535.4859, 36.93896
535.9680, 32.28125
536.4501, 28.04517
536.9323, 25.19019
537.4144, 24.26880
537.8965, 23.20850
538.3786, 21.82300
538.8607, 20.55688
539.3428, 20.17651
539.8250, 20.80933
540.3071, 21.17163
540.7892, 21.04468
541.2713, 20.37378
541.7534, 18.84985
542.2355, 16.46387
542.7177, 13.07568
543.1998, 6.887451
543.6819, 0.3352050
544.1640, 2.231934
544.6461, 0.3613280
545.1282, 1.926270
545.6104, 2.000244
546.0925, 0.7983400
546.5746, 0.7822270
547.0567, 4.150146
547.5388, 5.639893
548.0209, 1.983643
548.5031, 4.292725
548.9852, 7.795166
549.4673, 4.611084
549.9494, 1.801025
550.4315, 1.489258
550.9136, 3.666504
551.3958, 4.210693
551.8779, 1.849365
552.3600, 5.9326001E-02
552.8421, 2.019531
553.3242, 8.515137
553.8063, 10.98315
554.2885, 8.381104
554.7706, 3.660400
555.2527, 0.1452640
555.7348, 2.146973
556.2169, 3.268555
556.6990, 3.256104
557.1812, 2.217285
557.6633, 0.4189450
558.1454, 4.229980
558.6275, 7.490234
559.1096, 8.402344
559.5917, 8.761963
560.0739, 10.47388
560.5560, 13.78247
561.0381, 15.66333
561.5202, 13.44849
562.0023, 10.14722
562.4844, 7.857666
562.9666, 6.149414
563.4487, 6.770996
563.9308, 11.91455
564.4129, 18.44873
564.8950, 21.29834
565.3771, 18.44165
565.8593, 16.12012
566.3414, 15.67896
566.8235, 16.80029
567.3056, 19.12207
567.7877, 22.91675
568.2698, 25.00952
568.7520, 21.42163
569.2341, 14.28247
569.7162, 12.94189
570.1983, 18.07910
570.6804, 23.80225
571.1625, 23.82031
571.6447, 20.90479
572.1268, 19.61328
572.6089, 21.76147
573.0910, 24.29126
573.5731, 25.43286
574.0552, 25.43213
574.5374, 25.18823
575.0195, 24.93213
575.5016, 24.80713
575.9837, 24.82202
576.4658, 24.99268
576.9479, 25.57886
577.4301, 26.46680
577.9122, 27.87305
578.3943, 30.01392
578.8764, 32.94214
579.3585, 36.48682
579.8406, 41.31152
580.3228, 45.25928
580.8049, 44.99414
581.2870, 40.81055
581.7691, 39.04932
582.2512, 41.18433
582.7333, 45.19312
583.2155, 48.67554
583.6975, 51.41016
584.1796, 53.44189
584.6617, 52.65259
585.1439, 52.42725
585.6260, 56.87085
586.1081, 65.07104
586.5902, 72.35815
587.0723, 77.04370
587.5544, 79.32764
588.0366, 79.12769
588.5187, 75.75220
589.0008, 73.78320
589.4829, 74.73413
589.9650, 76.69556
590.4471, 78.75684
590.9293, 82.96777
591.4114, 82.29590
591.8935, 74.42529
592.3756, 63.57324
592.8577, 57.22070
593.3398, 55.52417
593.8220, 55.92090
594.3041, 58.98975
594.7862, 62.54663
595.2683, 60.06226
595.7504, 52.42090
596.2325, 46.34741
596.7147, 49.00415
597.1968, 53.95215
597.6789, 52.33447
598.1610, 43.39795
598.6431, 37.26660
599.1252, 44.01758
599.6074, 53.39014
600.0895, 56.75537
600.5716, 48.35107
601.0537, 41.31714
601.5358, 37.96582
602.0179, 36.82251
602.5001, 36.39478
602.9822, 37.06177
603.4643, 37.28540
603.9464, 36.37598
604.4285, 34.95532
604.9106, 36.10425
605.3928, 40.27026
605.8749, 42.80713
606.3570, 39.47510
606.8391, 32.50391
607.3212, 30.15747
607.8033, 32.21484
608.2855, 34.44312
608.7676, 32.30396
609.2497, 28.87573
609.7318, 28.71509
610.2139, 33.51123
610.6960, 36.85840
611.1782, 32.63818
611.6603, 26.28931
612.1424, 23.64185
612.6245, 32.92407
613.1066, 37.53149
613.5887, 31.61646
614.0709, 20.39551
614.5530, 14.79028
615.0351, 18.31543
615.5172, 19.80322
615.9993, 14.52222
616.4814, 4.764160
616.9636, 5.029785
617.4457, 16.36816
617.9278, 25.80273
618.4099, 21.50684
618.8920, 9.215820
619.3741, 6.172363
619.8563, 13.15771
620.3384, 20.03516
620.8205, 17.16943
621.3026, 9.999512
621.7847, 5.117676
622.2668, 4.526855
622.7490, 4.630371
623.2311, 4.610352
623.7132, 4.111328
624.1953, 2.699219
624.6774, 1.635254
625.1595, 4.490234
625.6417, 4.993652
626.1238, 3.707520
626.6059, 2.104980
627.0880, 0.3085940
627.5701, 1.738281
628.0522, 1.263672
628.5344, 0.6479490
629.0165, 1.864258
629.4986, 2.381348
629.9807, 2.441895
630.4628, 2.799316
630.9449, 2.689941
631.4271, 0.2387700
631.9092, 6.251953
632.3913, 11.45654
632.8734, 12.22021
633.3555, 11.04639
633.8376, 10.70605
634.3198, 12.32715
634.8019, 13.51025
635.2840, 13.32520
635.7661, 12.35596
636.2482, 11.56445
636.7303, 11.05127
637.2125, 10.58154
637.6946, 10.39648
638.1767, 10.15234
638.6588, 8.967773
639.1409, 6.890137
639.6230, 4.047852
640.1052, 0.1030270
640.5873, 4.234863
641.0694, 7.032715
641.5515, 8.254395
642.0336, 8.620605
642.5157, 8.130371
642.9979, 7.186035
643.4800, 6.822754
643.9621, 7.090820
644.4442, 5.781738
644.9263, 0.9384770
645.4084, 5.568848
645.8906, 12.18408
646.3727, 18.72070
646.8548, 25.16016
647.3369, 32.58936
647.8190, 39.01514
648.3011, 41.16650
648.7833, 37.05469
649.2654, 35.12695
649.7475, 36.80127
650.2296, 41.09521
650.7117, 46.49512
651.1938, 53.08301
651.6760, 60.57031
652.1581, 69.67480
652.6402, 79.22168
653.1223, 88.18652
653.6044, 96.16211
654.0865, 102.4307
654.5687, 104.7246
655.0508, 106.5469
655.5329, 109.8550
656.0150, 114.7529
656.4971, 121.7397
656.9792, 132.5000
657.4614, 144.2446
657.9435, 155.1455
658.4256, 164.1484
658.9077, 175.9331
659.3898, 191.3135
659.8719, 207.9077
660.3541, 222.7769
660.8362, 235.9219
661.3183, 251.7417
661.8004, 271.0410
662.2825, 291.2886
662.7646, 307.9990
663.2468, 322.9702
663.7289, 340.4941
664.2110, 361.4224
664.6931, 386.3354
665.1752, 416.7627
665.6573, 451.4751
666.1395, 488.2949
666.6216, 527.0381
667.1037, 567.3184
667.5858, 609.1084
668.0679, 652.6616
668.5500, 697.0708
669.0322, 740.3521
669.5143, 789.1943
669.9964, 848.5483
670.4785, 917.7051
670.9606, 984.2764
671.4427, 1048.118
671.9249, 1112.505
672.4070, 1179.109
672.8891, 1249.507
673.3712, 1326.888
673.8533, 1412.746
674.3354, 1499.611
674.8176, 1579.878
675.2997, 1661.021
675.7818, 1750.220
676.2639, 1854.518
676.7460, 1958.862
677.2281, 2057.213
677.7103, 2153.412
678.1924, 2252.170
678.6745, 2358.509
679.1566, 2454.280
679.6387, 2537.555
680.1208, 2608.547
680.6030, 2672.908
681.0851, 2729.388
681.5672, 2765.783
682.0493, 2778.300
682.5314, 2766.292
683.0135, 2727.596
683.4957, 2663.016
683.9778, 2576.738
684.4599, 2462.589
684.9420, 2334.365
685.4241, 2193.458
685.9063, 2042.511
686.3884, 1894.851
686.8705, 1754.747
687.3526, 1620.018
687.8347, 1487.864
688.3168, 1357.592
688.7990, 1237.893
689.2811, 1128.342
689.7632, 1027.109
690.2453, 931.8057
690.7274, 842.1304
691.2095, 764.2632
691.6917, 699.2188
692.1738, 642.2476
692.6559, 592.2158
693.1380, 547.0254
693.6201, 503.0537
694.1022, 458.4165
694.5844, 417.8340
695.0665, 384.5718
695.5486, 357.0264
696.0307, 333.0942
696.5128, 314.4805
696.9949, 297.1406
697.4771, 282.3579
697.9592, 267.6768
698.4413, 247.1309
698.9234, 217.9268
699.4055, 195.3989
699.8876, 185.8550
700.3698, 183.5859
700.8519, 173.6416
701.3340, 157.0952
701.8161, 141.0415
702.2982, 129.4009
702.7803, 120.4658
703.2625, 112.4751
703.7446, 105.2783
704.2267, 98.69189
704.7088, 92.61328
705.1909, 87.24414
705.6730, 83.19775
706.1552, 80.86670
706.6373, 79.07812
707.1194, 78.40674
707.6015, 77.43115
708.0836, 74.55225
708.5657, 69.40039
709.0479, 68.39551
709.5300, 71.92334
710.0121, 75.96582
710.4942, 76.41846
710.9763, 74.61475
711.4584, 74.20312
711.9406, 75.69434
712.4227, 77.04785
712.9048, 78.02832
713.3869, 77.60059
713.8690, 74.58252
714.3511, 67.57275
714.8333, 60.18604
715.3154, 51.07617
715.7975, 42.93555
716.2796, 39.64404
716.7617, 43.79053
717.2438, 45.60693
717.7260, 43.76562
718.2081, 39.66162
718.6902, 34.16309
719.1723, 27.79980
719.6544, 24.49414
720.1365, 26.47266
720.6187, 30.51025
721.1008, 33.95508
721.5829, 36.35840
722.0650, 37.11719
722.5471, 32.78174
723.0292, 29.68408
723.5114, 31.75684
723.9935, 37.45898
724.4756, 40.10645
724.9577, 36.73535
725.4398, 34.22070
725.9219, 34.79785
726.4041, 37.91016
726.8862, 40.22119
727.3683, 41.94971
727.8504, 43.00586
728.3325, 44.23877
728.8146, 45.01367
729.2968, 42.94482
729.7789, 38.41943
730.2610, 34.62305
730.7431, 34.15869
731.2252, 34.81201
731.7073, 34.43115
732.1895, 32.53223
732.6716, 33.03613
733.1537, 41.53955
733.6358, 47.94238
734.1179, 46.25537
734.6000, 34.21973
735.0822, 27.00439
735.5643, 25.25732
736.0464, 25.63086
736.5285, 25.88623
737.0106, 25.88086
737.4927, 24.66846
737.9749, 22.06006
738.4570, 20.07275
738.9391, 22.33789
739.4212, 25.38525
739.9033, 25.23340
740.3854, 20.71045
740.8676, 14.10791
741.3497, 2.408203
741.8318, 8.776855
742.3139, 13.56787
742.7960, 9.028320
743.2781, 5.833008
743.7603, 5.769531
744.2424, 5.913574
744.7245, 1.389648
745.2066, 7.057617
745.6887, 14.66406
746.1708, 19.97607
746.6530, 24.31885
747.1351, 31.18164
747.6172, 38.24512
748.0993, 40.67139
748.5814, 31.18213
749.0635, 22.38574
749.5457, 19.10547
750.0278, 19.58496
750.5099, 19.60791
750.9920, 18.66943
751.4741, 18.67383
751.9562, 20.95898
752.4384, 23.79395
752.9205, 21.62549
753.4026, 14.67969
753.8847, 7.866699
754.3668, 2.359375
754.8489, 0.9584960
755.3311, 0.4262700
755.8132, 4.911621
756.2953, 8.131836
756.7774, 6.521484
757.2595, 4.691406
757.7416, 5.259766
758.2238, 7.638672
758.7059, 9.178711
759.1880, 7.970703
759.6701, 8.868164
760.1522, 15.75439
760.6343, 25.93652
761.1165, 22.40723
761.5986, 4.247559
762.0807, 9.683594
762.5628, 4.690918
763.0449, 9.318359
763.5270, 15.81055
764.0092, 15.52295
764.4913, 13.23682
764.9734, 10.15234
765.4555, 7.032227
765.9376, 3.324219
766.4197, 0.8437500
766.9019, 1.002930
767.3840, 6.567383
767.8661, 13.07178
768.3482, 13.91650
768.8303, 9.545898
769.3124, 9.369141
769.7946, 13.75146
770.2767, 16.94531
770.7588, 13.45703
771.2409, 6.576172
771.7230, 1.376465
772.2051, 1.887695
772.6873, 2.635742
773.1694, 0.3725590
773.6515, 5.190430
774.1336, 11.64209
774.6157, 20.52100
775.0978, 25.04590
775.5800, 22.27295
776.0621, 18.73389
776.5442, 19.10156
777.0263, 23.75879
777.5084, 22.22949
777.9905, 13.79248
778.4727, 6.478516
778.9548, 8.957520
779.4369, 16.64600
779.9190, 22.34424
780.4011, 25.20947
780.8832, 25.33252
781.3654, 19.66895
781.8475, 13.54639
782.3296, 11.42529
782.8117, 16.51709
783.2938, 16.65723
783.7759, 8.814941
784.2581, 0.5737300
784.7402, 1.973145
785.2223, 1.181641
785.7044, 3.777832
786.1865, 5.422852
786.6686, 7.052734
787.1508, 10.34033
787.6329, 13.66064
788.1150, 13.80713
788.5971, 9.498535
789.0792, 7.422852
789.5613, 12.89990
790.0435, 20.54248
790.5256, 26.50684
791.0077, 31.10010
791.4898, 31.30811
791.9719, 24.07861
792.4540, 17.22754
792.9362, 19.40234
793.4183, 29.78418
793.9004, 36.71094
794.3825, 39.54883
794.8646, 38.44873
795.3467, 31.36377
795.8289, 21.70215
796.3110, 13.63672
796.7931, 7.745117
797.2752, 4.868164
797.7573, 8.968262
798.2394, 13.95557
798.7216, 14.58545
799.2037, 8.625488
799.6858, 3.811523
800.1679, 3.9062999E-02
800.6500, 1.447754
801.1321, 2.910645
801.6143, 10.95117
802.0964, 12.51758
802.5785, 5.975586
803.0606, 1.183594
803.5427, 1.739258
804.0248, 0.2236330
804.5070, 0.3325200
804.9891, 6.554688
805.4712, 8.441895
805.9533, 2.243652
806.4354, 13.61475
806.9175, 16.46436
807.3997, 8.046387
807.8818, 4.072754
808.3639, 5.812500
808.8460, 8.757813
809.3281, 8.200195
809.8102, 5.254883
810.2924, 2.687500
810.7745, 0.8383790
811.2566, 0.4775390
811.7387, 3.439453
812.2208, 5.462891
812.7029, 4.030762
813.1851, 4.132813
813.6672, 10.64795
814.1493, 14.50293
814.6314, 17.20752
815.1135, 19.65479
815.5956, 21.91992
816.0778, 24.31006
816.5599, 27.08838
817.0420, 28.25293
817.5241, 23.36914
818.0062, 16.57959
818.4883, 15.23193
818.9705, 20.96143
819.4526, 26.24121
819.9347, 25.80127
820.4168, 24.82861
820.8989, 27.33838
821.3810, 35.07178
821.8632, 37.16846
822.3453, 31.66016
822.8274, 24.92578
823.3095, 22.24414
823.7916, 22.91602
824.2737, 22.31787
824.7559, 20.34570
825.2380, 18.12207
825.7201, 15.15186
826.2022, 12.61621
826.6843, 13.82471
827.1664, 19.96973
827.6486, 22.71094
828.1307, 16.13574
828.6128, 10.18750
829.0949, 9.714844
829.5770, 14.74609
830.0591, 20.06641
830.5413, 26.33203
831.0234, 30.43750
831.5055, 27.19141
831.9876, 20.64453
832.4697, 19.92969
832.9518, 24.83398
833.4340, 28.90137
833.9161, 27.02344
834.3982, 23.84277
834.8803, 22.43359
835.3624, 23.11328
835.8445, 22.07031
836.3267, 17.55664
836.8088, 14.87305
837.2909, 18.62109
837.7730, 26.69141
838.2551, 23.66113
838.7372, 10.40332
839.2194, 1.6602000E-02
839.7015, 4.989258
840.1836, 14.13770
840.6657, 15.12793
841.1478, 9.437500
841.6299, 7.021484
842.1121, 16.88379
842.5942, 23.99707
843.0763, 22.03711
843.5584, 13.07617
844.0405, 9.817383
844.5226, 12.68652
845.0048, 17.42285
845.4869, 22.92969
845.9690, 28.23340
846.4511, 31.36230
846.9332, 32.54785
847.4153, 32.50391
847.8975, 31.22363
848.3796, 29.11523
848.8617, 25.68652
849.3438, 21.53223
849.8259, 18.58301
850.3080, 17.91699
850.7902, 16.48535
851.2723, 12.72949
851.7544, 8.960938
852.2365, 11.59082
852.7186, 19.46973
853.2007, 25.62598
853.6829, 27.26758
854.1650, 26.70117
854.6471, 24.68555
855.1292, 22.10938
855.6113, 20.61133
856.0934, 21.99707
856.5756, 22.35156
857.0577, 19.72559
857.5398, 16.86816
858.0219, 19.99316
858.5040, 29.74023
858.9861, 30.88672
859.4683, 18.77734
859.9504, 5.166992
860.4325, 5.798828
860.9146, 14.53125
861.3967, 20.99902
861.8788, 22.04688
862.3610, 22.33301
862.8431, 23.19238
863.3252, 23.91602
863.8073, 24.14062
864.2894, 23.80762
864.7715, 22.02246
865.2537, 18.64258
865.7358, 14.34375
866.2179, 9.614258
866.7000, 4.763672
867.1821, 0.5292970
867.6642, 2.833984
868.1464, 5.835938
868.6285, 10.73535
869.1106, 13.70898
869.5927, 10.71777
870.0748, 0.7939450
870.5569, 7.894531
871.0391, 8.560547
871.5212, 8.400391
872.0033, 10.39551
872.4854, 14.26953
872.9675, 18.48633
873.4496, 23.05176
873.9318, 26.44824
874.4139, 26.44141
874.8960, 25.60156
875.3781, 26.63867
875.8602, 29.19531
876.3423, 29.64355
876.8245, 23.70898
877.3066, 19.54785
877.7887, 19.98340
878.2708, 23.91113
878.7529, 26.60742
879.2350, 28.09766
879.7172, 29.41602
880.1993, 31.93066
880.6814, 33.20410
881.1635, 29.35840
881.6456, 21.81445
882.1277, 13.72070
882.6099, 0.8134770
883.0920, 5.788086
883.5741, 3.809570
884.0562, 18.42773
884.5383, 19.45605
885.0204, 4.191406
885.5026, 7.708008
885.9847, 13.04297
886.4668, 13.42773
886.9489, 9.854492
887.4310, 3.087891
887.9131, 5.352539
888.3953, 15.65723
888.8774, 25.48926
889.3595, 36.17285
889.8416, 44.08789
890.3237, 45.41797
890.8058, 36.44629
891.2880, 31.64844
891.7701, 31.93164
892.2522, 33.10840
892.7343, 30.49707
893.2164, 26.06543
893.6985, 25.98730
894.1807, 30.53613
894.6628, 34.58203
895.1449, 33.10059
895.6270, 31.08984
896.1091, 32.65332
896.5912, 38.17773
897.0734, 40.45605
897.5555, 37.88379
898.0376, 35.92578
898.5197, 37.24121
899.0018, 40.99902
899.4839, 44.61328
899.9661, 47.95898
900.4482, 49.79297
900.9303, 49.79590
901.4124, 47.95117
901.8945, 42.59961
902.3766, 35.46191
902.8588, 32.64941
903.3409, 37.47656
903.8230, 41.44629
904.3051, 43.90625
904.7872, 44.09375
905.2693, 39.10547
905.7515, 30.03418
906.2336, 23.94141
906.7157, 23.35352
907.1978, 24.32129
907.6799, 22.54980
908.1620, 20.61230
908.6442, 21.96680
909.1263, 29.26465
909.6084, 37.39062
910.0905, 49.09473
910.5726, 56.88770
911.0547, 50.65137
911.5369, 32.89160
912.0190, 28.73145
912.5011, 40.17090
912.9832, 53.09375
913.4653, 56.04102
913.9474, 54.95020
914.4296, 54.26660
914.9117, 54.28418
915.3938, 57.95117
915.8759, 69.01367
916.3580, 78.91504
916.8401, 83.45703
917.3223, 83.60352
917.8044, 86.16211
918.2865, 90.87793
918.7686, 95.64453
919.2507, 98.39844
919.7328, 101.2793
920.2150, 108.7422
920.6971, 118.0586
921.1792, 122.8438
921.6613, 117.1426
922.1434, 112.4844
922.6255, 111.5156
923.1077, 111.9424
923.5898, 107.8213
924.0719, 99.63379
924.5540, 99.97852
925.0361, 113.4307
925.5182, 127.2715
926.0004, 128.9170
926.4825, 123.6943
926.9646, 117.8467
927.4467, 111.1514
927.9288, 109.7832
928.4109, 117.6006
928.8931, 124.9473
929.3752, 124.1445
929.8573, 115.4004
930.3394, 111.0605
930.8215, 111.1035
931.3036, 109.4053
931.7858, 98.29883
932.2679, 85.81152
932.7500, 80.73730
933.2321, 82.53711
933.7142, 84.55859
934.1964, 88.95508
934.6785, 88.12891
935.1606, 77.15332
935.6427, 61.38281
936.1248, 57.57520
936.6069, 65.46289
937.0891, 73.17676
937.5712, 76.72266
938.0533, 78.21777
938.5354, 78.75391
939.0175, 79.11816
939.4996, 80.05957
939.9818, 83.45312
940.4639, 84.03125
940.9460, 80.65332
941.4281, 77.30664
941.9102, 75.71289
942.3923, 75.41113
942.8745, 78.72852
943.3566, 85.18652
943.8387, 90.74121
944.3208, 89.91699
944.8029, 89.42090
945.2850, 96.66699
945.7672, 112.1416
946.2493, 123.1543
946.7314, 127.9453
947.2135, 129.8330
947.6956, 128.2666
948.1777, 125.6299
948.6599, 133.0068
949.1420, 148.0264
949.6241, 156.0186
950.1062, 141.7334
950.5883, 127.9932
951.0704, 134.2109
951.5526, 151.4492
952.0347, 162.0273
952.5168, 160.9805
952.9989, 160.6113
953.4810, 161.9131
953.9631, 163.9375
954.4453, 167.0137
954.9274, 169.8750
955.4095, 166.7090
955.8916, 156.0605
956.3737, 146.8359
956.8558, 148.7090
957.3380, 151.2500
957.8201, 145.3877
958.3022, 129.9180
958.7843, 118.9658
959.2664, 113.2148
959.7485, 110.0410
960.2307, 110.5254
960.7128, 111.0186
961.1949, 100.1807
961.6770, 81.27637
962.1591, 65.47070
962.6412, 61.25977
963.1234, 57.79688
963.6055, 48.14160
964.0876, 37.77734
964.5697, 38.63477
965.0518, 56.08691
965.5339, 58.28125
966.0161, 38.79980
966.4982, 13.47656
966.9803, 2.885742
967.4624, 10.53906
967.9445, 7.303711
968.4266, 8.862305
968.9088, 20.39648
969.3909, 16.45312
969.8730, 10.09082
970.3551, 8.418945
970.8372, 10.68750
971.3193, 10.06543
971.8015, 6.019531
972.2836, 4.121094
972.7657, 9.028320
973.2478, 16.00000
973.7299, 19.38574
974.2120, 20.62793
974.6942, 23.45215
975.1763, 35.06934
975.6584, 39.13770
976.1405, 28.84570
976.6226, 15.98535
977.1047, 20.83496
977.5869, 41.37988
978.0690, 50.57812
978.5511, 43.08887
979.0332, 37.03223
979.5153, 57.00684
979.9974, 79.38281
980.4796, 78.56250
980.9617, 47.38574
981.4438, 31.89258
981.9259, 39.00684
982.4080, 50.75391
982.8901, 61.94922
983.3723, 70.31055
983.8544, 65.39355
984.3365, 50.45508
984.8186, 39.01172
985.3007, 37.22266
985.7828, 40.84668
986.2650, 53.23145
986.7471, 67.50098
987.2292, 71.85742
987.7113, 62.26562
988.1934, 56.45996
988.6755, 55.99707
989.1577, 58.79980
989.6398, 66.05469
990.1219, 73.32031
990.6040, 71.10840
991.0861, 58.27734
991.5682, 47.71875
992.0504, 52.02148
992.5325, 51.87500
993.0146, 36.25586
993.4967, 9.105469
993.9788, 7.860352
994.4609, 14.43262
994.9431, 16.32520
995.4252, 13.97949
995.9073, 10.45215
996.3894, 9.130859
996.8715, 8.559570
997.3536, 6.001953
997.8358, 5.932617
998.3179, 8.420898
998.8000, 4.040039
999.2821, 18.27832
999.7642, 22.45996
1000.246, 17.23242
1000.728, 2.853516
1001.211, 20.15332
1001.693, 35.72363
1002.175, 24.67285
1002.657, 10.49023
1003.139, 8.683594
1003.621, 18.29492
1004.103, 26.10156
1004.585, 32.01367
1005.068, 36.30957
1005.550, 39.64941
1006.032, 40.93555
1006.514, 35.42676
1006.996, 27.59277
1007.478, 27.69531
1007.960, 43.10254
1008.442, 55.04492
1008.924, 54.74316
1009.407, 52.05859
1009.889, 53.95312
1010.371, 60.56543
1010.853, 65.18359
1011.335, 68.09180
1011.817, 68.34766
1012.299, 62.51074
1012.781, 56.41113
1013.263, 57.08887
1013.746, 62.35254
1014.228, 64.25684
1014.710, 58.22070
1015.192, 55.48145
1015.674, 59.08008
1016.156, 64.13574
1016.638, 61.55957
1017.120, 54.67188
1017.603, 54.75977
1018.085, 64.74512
1018.567, 74.29199
1019.049, 79.10645
1019.531, 79.39941
1020.013, 73.20605
1020.495, 61.10449
1020.977, 59.28613
1021.459, 69.25684
1021.942, 75.47363
1022.424, 69.01367
1022.906, 57.09668
1023.388, 48.82910
1023.870, 42.90918
1024.352, 36.73828
1024.834, 25.86523
1025.316, 20.31055
1025.799, 23.98145
1026.281, 31.29492
1026.763, 36.00586
1027.245, 37.93164
1027.727, 38.43555
1028.209, 37.82227
1028.691, 39.75781
1029.173, 50.61328
1029.656, 61.15234
1030.138, 64.79785
1030.620, 62.04297
1031.102, 56.49219
1031.584, 45.68359
1032.066, 41.34766
1032.548, 47.51465
1033.030, 58.58887
1033.512, 64.79102
1033.995, 69.99805
1034.477, 82.56836
1034.959, 108.9912
1035.441, 125.1084
1035.923, 119.4844
1036.405, 107.9814
1036.887, 97.87500
1037.369, 89.37402
1037.851, 86.20898
1038.334, 87.15332
1038.816, 82.70801
1039.298, 58.91113
1039.780, 37.24512
1040.262, 36.64062
1040.744, 47.55566
1041.226, 50.48730
1041.708, 42.43066
1042.191, 32.66406
1042.673, 20.39258
1043.155, 12.99609
1043.637, 22.29492
1044.119, 40.14844
1044.601, 52.98438
1045.083, 60.09180
1045.565, 65.45605
1046.047, 74.10840
1046.530, 76.45996
1047.012, 65.13574
1047.494, 48.17578
1047.976, 49.24023
1048.458, 66.28711
1048.940, 80.50684
1049.422, 86.18457
1049.904, 90.30566
1050.386, 103.7529
1050.869, 115.1719
1051.351, 108.2041
1051.833, 75.80273
1052.315, 66.88086
1052.797, 86.48242
1053.279, 108.4824
1053.761, 119.0840
1054.243, 121.7637
1054.726, 119.7363
1055.208, 115.2676
1055.690, 114.6895
1056.172, 122.2363
1056.654, 129.4141
1057.136, 136.7578
1057.618, 141.3828
1058.100, 137.8496
1058.583, 128.4707
1059.065, 123.4121
1059.547, 123.0449
1060.029, 126.4902
1060.511, 136.8066
1060.993, 146.8418
1061.475, 151.5723
1061.957, 152.1699
1062.439, 152.7891
1062.922, 152.6035
1063.404, 159.7852
1063.886, 179.3379
1064.368, 197.2051
1064.850, 193.1367
1065.332, 178.2461
1065.814, 166.6309
1066.296, 160.0723
1066.778, 160.6699
1067.261, 172.5234
1067.743, 184.1387
1068.225, 189.1465
1068.707, 190.6348
1069.189, 196.1211
1069.671, 205.6660
1070.153, 219.7461
1070.635, 244.6973
1071.118, 265.7227
1071.600, 274.2324
1072.082, 276.8633
1072.564, 279.9355
1073.046, 283.4668
1073.528, 283.3535
1074.010, 278.8906
1074.492, 281.7695
1074.974, 314.3652
1075.457, 346.7383
1075.939, 345.2148
1076.421, 317.8242
1076.903, 306.4336
1077.385, 319.7500
1077.867, 332.3223
1078.349, 341.0176
1078.831, 344.1504
1079.313, 335.4668
1079.796, 321.1758
1080.278, 313.1641
1080.760, 313.4941
1081.242, 312.2891
1081.724, 304.2988
1082.206, 296.7676
1082.688, 293.6738
1083.170, 292.0293
1083.652, 277.6387
1084.135, 252.6816
1084.617, 235.0273
1085.099, 233.5938
1085.581, 232.3867
1086.063, 223.1895
1086.545, 208.7324
1087.027, 190.9336
1087.509, 168.5234
1087.992, 155.7461
1088.474, 153.4551
1088.956, 153.2480
1089.438, 152.6777
1089.920, 149.2715
1090.402, 134.6660
1090.884, 116.1797
1091.366, 110.0234
1091.849, 126.6387
1092.331, 138.6133
1092.813, 144.3711
1093.295, 144.3262
1093.777, 136.7422
1094.259, 124.1094
1094.741, 111.3066
1095.223, 98.74609
1095.705, 87.32227
1096.188, 78.24805
1096.670, 69.94336
1097.152, 63.89258
1097.634, 57.23047
1098.116, 41.82031
1098.598, 20.82617
1099.080, 10.25586
1099.562, 13.50586
1100.044, 21.39648
1100.527, 35.57031
1101.009, 45.68555
1101.491, 43.58398
1101.973, 31.34961
1102.455, 16.93359
1102.937, 0.1679690
1103.419, 9.458984
1103.901, 6.263672
1104.384, 2.076172
1104.866, 9.560547
1105.348, 16.22461
1105.830, 23.56836
1106.312, 33.61719
1106.794, 31.83594
1107.276, 14.19727
1107.758, 1.621094
1108.240, 4.521484
1108.723, 1.1719000E-02
1109.205, 3.486328
1109.687, 7.212891
1110.169, 14.25000
1110.651, 33.31641
1111.133, 45.06055
1111.615, 48.60352
1112.097, 45.20312
1112.579, 31.31641
1113.062, 11.89648
1113.544, 7.550781
1114.026, 16.73633
1114.508, 24.26953
1114.990, 21.96094
1115.472, 17.10547
1115.954, 9.537109
1116.436, 2.634766
1116.919, 0.8242190
1117.401, 4.136719
1117.883, 15.17383
1118.365, 34.47266
1118.847, 49.91406
1119.329, 49.25977
1119.811, 44.15039
1120.293, 41.51953
1120.776, 41.86523
1121.258, 43.08203
1121.740, 46.13867
1122.222, 48.04297
1122.704, 49.04883
1123.186, 44.86719
1123.668, 24.85742
1124.150, 1.710938
1124.632, 9.732422
1125.115, 5.908203
1125.597, 4.042969
1126.079, 5.689453
1126.561, 3.035156
1127.043, 10.70703
1127.525, 24.88477
1128.007, 18.11523
1128.489, 0.6289060
1128.971, 10.26562
1129.454, 9.113281
1129.936, 3.691406
1130.418, 9.443359
1130.900, 17.77930
1131.382, 11.53906
1131.864, 3.890625
1132.346, 15.28906
1132.828, 21.72266
1133.311, 20.52539
1133.793, 2.410156
1134.275, 11.01562
1134.757, 13.86523
1135.239, 12.59766
1135.721, 12.07227
1136.203, 12.08008
1136.685, 12.64258
1137.167, 13.75586
1137.650, 14.79102
1138.132, 13.43164
1138.614, 14.16211
1139.096, 26.26758
1139.578, 38.04688
1140.060, 27.18945
1140.542, 6.746094
1141.024, 14.65820
1141.506, 7.824219
1141.989, 32.85352
1142.471, 46.85352
1142.953, 49.54883
1143.435, 33.35742
1143.917, 6.089844
1144.399, 6.427734
1144.881, 2.574219
1145.363, 5.394531
1145.846, 15.96484
1146.328, 24.58789
1146.810, 24.56250
1147.292, 21.25195
1147.774, 19.19727
1148.256, 18.99219
1148.738, 22.17188
1149.220, 30.24414
1149.703, 35.35938
1150.185, 34.62109
1150.667, 31.79297
1151.149, 26.70898
1151.631, 25.42969
1152.113, 40.62109
1152.595, 78.25586
1153.077, 97.62695
1153.559, 91.34766
1154.042, 79.01562
1154.524, 64.55078
1155.006, 53.90625
1155.488, 64.83398
1155.970, 86.20312
1156.452, 93.99805
1156.934, 75.63477
1157.416, 65.34570
1157.898, 71.59961
1158.381, 77.72656
1158.863, 74.15039
1159.345, 64.24609
1159.827, 57.48633
1160.309, 52.57031
1160.791, 45.22461
1161.273, 31.25195
1161.755, 20.27734
1162.238, 15.66797
1162.720, 13.51953
1163.202, 12.16602
1163.684, 11.41602
1164.166, 6.720703
1164.648, 0.3281250
1165.130, 1.742188
1165.612, 25.50391
1166.094, 44.25195
1166.577, 43.46289
1167.059, 39.17969
1167.541, 49.22266
1168.023, 70.83008
1168.505, 79.36914
1168.987, 74.88086
1169.469, 66.43945
1169.951, 49.77344
1170.433, 40.85156
1170.916, 56.29102
1171.398, 77.86328
1171.880, 81.59375
1172.362, 68.65820
1172.844, 54.04883
1173.326, 39.29492
1173.808, 31.85938
1174.290, 48.54297
1174.773, 62.60938
1175.255, 53.64453
1175.737, 33.41016
1176.219, 24.83203
1176.701, 28.25586
1177.183, 20.42578
1177.665, 2.468750
1178.147, 18.38867
1178.630, 2.048828
1179.112, 24.49219
1179.594, 17.01758
1180.076, 29.35938
1180.558, 36.57422
1181.040, 26.51172
1181.522, 43.50391
1182.004, 34.48242
1182.486, 23.43359
1182.969, 37.26172
1183.451, 54.62891
1183.933, 53.20508
1184.415, 67.52930
1184.897, 42.85742
1185.379, 73.90820
1185.861, 87.56250
1186.343, 69.12109
1186.825, 44.89453
1187.308, 43.54102
1187.790, 48.73438
1188.272, 44.13867
1188.754, 29.23242
1189.236, 15.10156
1189.718, 1.480469
1190.200, 7.984375
1190.682, 11.87695
1191.165, 9.375000
1191.647, 7.154297
1192.129, 26.33008
1192.611, 35.10156
1193.093, 31.03516
1193.575, 34.51367
1194.057, 47.25586
1194.539, 52.02148
1195.021, 36.58984
1195.504, 21.26758
1195.986, 29.90625
1196.468, 51.65820
1196.950, 75.31445
1197.432, 102.0742
1197.914, 109.0098
1198.396, 92.13281
1198.878, 78.90820
1199.360, 86.09570
1199.843, 99.60742
1200.325, 107.7852
1200.807, 110.3496
1201.289, 106.4629
1201.771, 96.66211
1202.253, 75.36914
1202.735, 39.38477
1203.217, 19.29102
1203.700, 43.70898
1204.182, 78.95312
1204.664, 84.56836
1205.146, 75.45898
1205.628, 77.17578
1206.110, 99.28906
1206.592, 106.9043
1207.074, 98.00586
1207.557, 87.00977
1208.039, 81.80859
1208.521, 80.01367
1209.003, 80.53516
1209.485, 82.06836
1209.967, 81.76953
1210.449, 77.15234
1210.931, 77.66992
1211.413, 84.18164
1211.896, 91.80078
1212.378, 95.06250
1212.860, 100.0586
1213.342, 121.2695
1213.824, 147.0371
1214.306, 149.8145
1214.788, 117.4238
1215.270, 103.6816
1215.752, 112.1797
1216.235, 120.4805
1216.717, 112.2949
1217.199, 95.87500
1217.681, 76.00977
1218.163, 55.26172
1218.645, 38.07812
1219.127, 22.93945
1219.609, 20.20117
1220.092, 31.78516
1220.574, 43.51758
1221.056, 42.01172
1221.538, 37.55469
1222.020, 40.20312
1222.502, 46.84375
1222.984, 49.88086
1223.466, 46.91797
1223.948, 51.08984
1224.431, 63.74609
1224.913, 75.25977
1225.395, 78.35938
1225.877, 76.55859
1226.359, 69.25977
1226.841, 60.45703
1227.323, 60.19727
1227.805, 71.14648
1228.287, 76.99609
1228.770, 76.17969
1229.252, 73.36133
1229.734, 62.51758
1230.216, 60.18164
1230.698, 89.29883
1231.180, 133.0488
1231.662, 151.8457
1232.144, 143.8809
1232.627, 138.6406
1233.109, 138.6699
1233.591, 135.9160
1234.073, 121.4688
1234.555, 105.5488
1235.037, 96.66992
1235.519, 90.91211
1236.001, 75.63086
1236.484, 52.69727
1236.966, 58.02930
1237.448, 94.70898
1237.930, 120.0918
1238.412, 89.85547
1238.894, 56.77930
1239.376, 53.87109
1239.858, 65.51172
1240.340, 65.47070
1240.823, 55.07227
1241.305, 57.50195
1241.787, 74.10156
1242.269, 86.33594
1242.751, 72.70703
1243.233, 63.97656
1243.715, 79.34961
1244.197, 102.0176
1244.679, 102.1719
1245.162, 85.60938
1245.644, 82.19727
1246.126, 94.16016
1246.608, 109.1895
1247.090, 125.7520
1247.572, 137.5020
1248.054, 138.5566
1248.536, 138.0059
1249.019, 153.4316
1249.501, 177.7656
1249.983, 185.6289
1250.465, 176.4863
1250.947, 175.7051
1251.429, 213.3066
1251.911, 231.3008
1252.393, 211.6914
1252.875, 178.9785
1253.358, 167.4570
1253.840, 167.8945
1254.322, 159.8184
1254.804, 142.4512
1255.286, 124.0840
1255.768, 104.7793
1256.250, 88.69922
1256.732, 74.86328
1257.214, 69.66602
1257.697, 90.22852
1258.179, 119.9141
1258.661, 132.2637
1259.143, 127.3379
1259.625, 114.0312
1260.107, 82.86133
1260.589, 76.64258
1261.071, 106.3398
1261.554, 141.5996
1262.036, 153.1055
1262.518, 149.4590
1263.000, 135.4082
1263.482, 114.5566
1263.964, 101.4863
1264.446, 97.86328
1264.928, 96.24805
1265.411, 96.00195
1265.893, 93.26562
1266.375, 74.46094
1266.857, 60.64453
1267.339, 74.36523
1267.821, 108.1309
1268.303, 138.4199
1268.785, 166.5840
1269.267, 171.2578
1269.750, 149.3105
1270.232, 126.8867
1270.714, 124.9180
1271.196, 127.7168
1271.678, 126.7070
1272.160, 123.1836
1272.642, 119.5645
1273.124, 115.6543
1273.606, 105.6582
1274.089, 89.95898
1274.571, 81.21094
1275.053, 103.3945
1275.535, 112.9453
1276.017, 85.07812
1276.499, 47.73828
1276.981, 40.95703
1277.463, 56.47266
1277.946, 64.46875
1278.428, 63.29883
1278.910, 58.75195
1279.392, 51.98633
1279.874, 41.88477
1280.356, 23.36523
1280.838, 10.95312
1281.320, 32.94531
1281.802, 67.60938
1282.285, 64.03906
1282.767, 29.61523
1283.249, 5.587891
1283.731, 11.00977
1284.213, 9.958984
1284.695, 1.951172
1285.177, 13.70312
1285.659, 13.71875
1286.141, 8.503906
1286.624, 5.281250
1287.106, 3.818359
1287.588, 3.179688
1288.070, 3.908203
1288.552, 2.464844
1289.034, 1.388672
1289.516, 6.314453
1289.998, 10.38281
1290.481, 15.79688
1290.963, 30.46094
1291.445, 43.98633
1291.927, 36.14258
1292.409, 4.083984
1292.891, 0.6152340
1293.373, 25.19727
1293.855, 49.76562
1294.338, 50.43359
1294.820, 44.51367
1295.302, 48.17383
1295.784, 51.30664
1296.266, 47.80078
1296.748, 41.99414
1297.230, 50.25781
1297.712, 72.52344
1298.194, 96.30469
1298.677, 143.1035
1299.159, 162.7734
1299.641, 139.3965
1300.123, 108.4883
1300.605, 94.21484
1301.087, 92.33789
1301.569, 89.77734
1302.051, 81.55273
1302.533, 59.24609
1303.016, 0.0000000E+00
##END=



