##NAMES=Fluorapophyllite-(K)
##RRUFFID=R040095
##IDEAL CHEMISTRY=KCa_4_Si_8_O_20_F&#183;8H_2_O
##LOCALITY=unknown
##OWNER=RRUFF
##SOURCE=University of Arizona Mineral Museum
##DESCRIPTION=Colorless crystals
##STATUS=The identification of this mineral has been confirmed by X-ray diffraction and chemical analysis
##URL=rruff.info/R040095
##MEASURED CHEMISTRY=(K_0.90_Na_0.04_)Ca_3.96_Si_8.00_O_20_(F_0.82_(OH)_0.18_)Â·8H_2_O
125.0042, 0.0000000E+00
125.4863, 23.10016
125.9684, 10.19006
126.4506, 3.763672
126.9327, 5.038452
127.4148, 6.911377
127.8969, 28.45941
128.3790, 54.54907
128.8611, 80.65936
129.3432, 106.1924
129.8254, 144.1786
130.3075, 204.0599
130.7896, 265.5104
131.2717, 322.3827
131.7538, 374.4871
132.2359, 425.1235
132.7181, 477.6428
133.2002, 533.7898
133.6823, 573.8625
134.1644, 588.1672
134.6465, 598.1324
135.1286, 610.5539
135.6108, 627.6622
136.0929, 653.5131
136.5750, 693.7799
137.0571, 752.6651
137.5392, 801.6477
138.0213, 851.9031
138.5035, 885.6838
138.9856, 890.4141
139.4677, 864.6124
139.9498, 813.2725
140.4319, 736.1464
140.9140, 621.7790
141.3962, 532.0451
141.8783, 468.2812
142.3604, 429.9332
142.8425, 421.8134
143.3246, 445.1699
143.8067, 483.5898
144.2889, 518.2903
144.7710, 547.5862
145.2531, 584.7832
145.7352, 633.7112
146.2173, 668.8530
146.6994, 677.6639
147.1816, 675.4999
147.6637, 669.8033
148.1458, 668.5698
148.6279, 671.1485
149.1100, 677.3041
149.5921, 693.5775
150.0743, 711.9844
150.5564, 717.6136
151.0385, 705.2744
151.5206, 684.7651
152.0027, 665.8126
152.4848, 647.3304
152.9670, 633.7695
153.4491, 628.1998
153.9312, 628.2948
154.4133, 626.8754
154.8954, 617.5820
155.3775, 614.1144
155.8597, 632.3141
156.3418, 671.2736
156.8239, 720.7896
157.3060, 776.5068
157.7881, 838.3197
158.2702, 907.3476
158.7524, 981.3278
159.2345, 1065.375
159.7166, 1161.744
160.1987, 1270.093
160.6808, 1389.265
161.1629, 1524.355
161.6451, 1671.735
162.1272, 1814.525
162.6093, 1951.927
163.0914, 2079.640
163.5735, 2200.490
164.0556, 2315.467
164.5378, 2410.945
165.0199, 2490.303
165.5020, 2551.738
165.9841, 2551.540
166.4662, 2461.429
166.9483, 2319.774
167.4305, 2155.635
167.9126, 1970.679
168.3947, 1779.141
168.8768, 1585.769
169.3589, 1390.242
169.8410, 1216.939
170.3232, 1077.760
170.8053, 958.9465
171.2874, 848.9520
171.7695, 746.7351
172.2516, 655.5243
172.7337, 579.3677
173.2159, 518.3674
173.6980, 465.3855
174.1801, 417.4666
174.6622, 378.3359
175.1443, 357.2465
175.6264, 355.2358
176.1086, 349.5548
176.5907, 309.7899
177.0728, 230.5078
177.5549, 167.7122
178.0370, 144.5726
178.5191, 135.0082
179.0013, 124.9601
179.4834, 112.1691
179.9655, 99.61627
180.4476, 90.74463
180.9297, 86.02661
181.4118, 81.59540
181.8940, 73.39734
182.3761, 67.63812
182.8582, 67.75421
183.3403, 76.47784
183.8224, 86.27643
184.3046, 86.94165
184.7867, 76.01544
185.2688, 72.33777
185.7509, 84.21588
186.2330, 101.9169
186.7151, 120.2274
187.1973, 138.2994
187.6794, 158.3589
188.1615, 184.7737
188.6436, 219.1089
189.1257, 247.6745
189.6078, 255.9063
190.0900, 266.1671
190.5721, 291.7103
191.0542, 334.9059
191.5363, 388.1206
192.0184, 445.6158
192.5005, 508.7974
192.9827, 565.2104
193.4648, 608.5270
193.9469, 646.5994
194.4290, 681.2155
194.9111, 714.5187
195.3932, 751.7819
195.8754, 799.8632
196.3575, 861.0297
196.8396, 917.6425
197.3217, 964.4253
197.8038, 1009.825
198.2859, 1057.368
198.7681, 1107.988
199.2502, 1160.472
199.7323, 1213.369
200.2144, 1266.135
200.6965, 1322.781
201.1786, 1393.638
201.6608, 1460.599
202.1429, 1513.282
202.6250, 1552.365
203.1071, 1586.033
203.5892, 1620.060
204.0713, 1653.854
204.5535, 1693.774
205.0356, 1750.314
205.5177, 1804.413
205.9998, 1848.492
206.4819, 1882.478
206.9640, 1909.319
207.4462, 1935.272
207.9283, 1961.744
208.4104, 1966.833
208.8925, 1943.108
209.3746, 1902.008
209.8567, 1846.598
210.3388, 1777.897
210.8210, 1697.414
211.3031, 1604.095
211.7852, 1498.098
212.2673, 1392.010
212.7494, 1282.420
213.2315, 1177.810
213.7137, 1079.698
214.1958, 989.6413
214.6779, 909.3041
215.1600, 842.4031
215.6421, 788.1735
216.1242, 736.5573
216.6064, 686.8636
217.0885, 641.6091
217.5706, 596.8517
218.0527, 556.6664
218.5348, 529.7115
219.0169, 526.2499
219.4991, 540.7621
219.9812, 542.8054
220.4633, 519.8531
220.9454, 502.7761
221.4275, 503.6877
221.9096, 517.4968
222.3918, 535.8228
222.8739, 555.2639
223.3560, 575.5508
223.8381, 595.6089
224.3202, 614.9656
224.8023, 635.1022
225.2845, 658.7043
225.7666, 682.8257
226.2487, 703.1827
226.7308, 716.8099
227.2129, 726.6542
227.6950, 741.4758
228.1772, 767.5654
228.6593, 782.6859
229.1414, 777.5942
229.6235, 758.8301
230.1056, 731.1266
230.5877, 694.4809
231.0699, 653.6935
231.5520, 617.7856
232.0341, 589.9978
232.5162, 555.5665
232.9983, 501.3441
233.4804, 441.9088
233.9626, 388.9280
234.4447, 345.7021
234.9268, 308.8278
235.4089, 273.2540
235.8910, 238.2379
236.3731, 210.1494
236.8553, 199.6777
237.3374, 191.4495
237.8195, 170.9889
238.3016, 135.0840
238.7837, 97.31891
239.2658, 70.45685
239.7480, 54.28625
240.2301, 40.66321
240.7122, 28.07489
241.1943, 17.25824
241.6764, 9.769165
242.1585, 5.751648
242.6407, 0.4677730
243.1228, 10.80109
243.6049, 26.91315
244.0870, 41.38562
244.5691, 54.41763
245.0512, 63.33780
245.5334, 65.78882
246.0155, 62.13251
246.4976, 56.16101
246.9797, 46.01486
247.4618, 34.96033
247.9439, 33.10477
248.4261, 44.97687
248.9082, 59.30139
249.3903, 68.39377
249.8724, 72.47806
250.3545, 70.01010
250.8366, 53.89160
251.3188, 32.93048
251.8009, 22.78635
252.2830, 26.57132
252.7651, 31.34714
253.2472, 25.44977
253.7293, 11.99377
254.2115, 1.177795
254.6936, 4.401855
255.1757, 6.998657
255.6578, 6.897156
256.1399, 4.139343
256.6220, 5.154053
257.1042, 15.61755
257.5863, 33.42236
258.0684, 48.75610
258.5505, 60.56702
259.0326, 70.44714
259.5147, 79.10596
259.9969, 86.65900
260.4790, 93.18463
260.9611, 97.85321
261.4432, 102.2460
261.9253, 111.2050
262.4074, 126.6230
262.8896, 143.1968
263.3717, 160.6363
263.8538, 177.7826
264.3359, 192.4483
264.8180, 203.9561
265.3001, 212.0814
265.7823, 215.1082
266.2644, 209.0939
266.7465, 206.9719
267.2286, 214.2523
267.7107, 225.6700
268.1928, 235.0094
268.6750, 240.5177
269.1571, 243.0670
269.6392, 243.9926
270.1213, 243.9546
270.6034, 239.7250
271.0855, 229.9645
271.5677, 216.8362
272.0498, 199.4694
272.5319, 178.9658
273.0140, 161.4969
273.4961, 154.8505
273.9782, 162.8083
274.4604, 161.2161
274.9425, 140.9938
275.4246, 120.9726
275.9067, 110.6105
276.3888, 109.1223
276.8709, 111.1053
277.3531, 112.4097
277.8352, 113.1159
278.3173, 116.9941
278.7994, 132.0311
279.2815, 141.5447
279.7636, 136.8070
280.2458, 124.5187
280.7279, 115.8627
281.2100, 117.2198
281.6921, 125.9974
282.1742, 132.2676
282.6563, 131.6291
283.1385, 134.9422
283.6206, 145.9166
284.1027, 160.0649
284.5848, 172.5443
285.0669, 181.5959
285.5490, 190.0428
286.0312, 203.4774
286.5133, 225.1583
286.9954, 243.1496
287.4775, 248.7052
287.9596, 255.7520
288.4417, 272.2892
288.9239, 299.8059
289.4060, 336.0414
289.8881, 382.9824
290.3702, 442.1963
290.8523, 490.5942
291.3344, 517.5148
291.8166, 541.8021
292.2987, 573.9354
292.7808, 612.0294
293.2629, 648.4549
293.7450, 678.0861
294.2271, 701.6266
294.7093, 721.7702
295.1914, 735.7146
295.6735, 751.7093
296.1556, 779.8630
296.6377, 812.5807
297.1198, 836.1087
297.6020, 844.7587
298.0841, 842.4717
298.5662, 832.3030
299.0483, 813.1511
299.5304, 795.8483
300.0125, 786.6081
300.4947, 781.4600
300.9768, 774.1711
301.4589, 763.6912
301.9410, 753.2371
302.4231, 742.9487
302.9052, 733.4959
303.3874, 728.9075
303.8695, 731.4036
304.3516, 738.4291
304.8337, 746.6486
305.3158, 756.5137
305.7979, 765.8324
306.2801, 773.1270
306.7622, 778.6413
307.2443, 782.6687
307.7264, 786.2948
308.2085, 792.8231
308.6906, 806.5386
309.1728, 829.0334
309.6549, 846.1605
310.1370, 852.7905
310.6191, 856.5532
311.1012, 864.1732
311.5833, 875.7021
312.0655, 886.3035
312.5476, 891.8062
313.0297, 892.3049
313.5118, 894.3990
313.9939, 896.7646
314.4760, 901.7262
314.9582, 910.0587
315.4403, 921.7964
315.9224, 937.8944
316.4045, 959.1544
316.8866, 982.5025
317.3687, 999.6669
317.8509, 1005.350
318.3330, 1011.931
318.8151, 1022.959
319.2972, 1033.266
319.7793, 1037.714
320.2614, 1035.492
320.7436, 1030.575
321.2257, 1028.960
321.7078, 1033.028
322.1899, 1031.391
322.6720, 1022.518
323.1541, 1009.205
323.6363, 991.7543
324.1184, 970.5666
324.6005, 946.0910
325.0826, 916.5894
325.5647, 883.7781
326.0468, 860.1453
326.5290, 851.5348
327.0111, 842.3097
327.4932, 822.7192
327.9753, 799.4410
328.4574, 782.3594
328.9395, 776.3731
329.4217, 775.7535
329.9038, 772.4834
330.3859, 766.2528
330.8680, 761.3058
331.3501, 759.3313
331.8322, 759.4136
332.3144, 760.0834
332.7965, 761.0422
333.2786, 763.7136
333.7607, 767.1450
334.2428, 772.8658
334.7249, 788.1552
335.2070, 818.3372
335.6891, 847.0724
336.1713, 852.4802
336.6534, 835.6183
337.1355, 819.6180
337.6176, 810.2153
338.0997, 802.2141
338.5818, 792.7769
339.0640, 781.0477
339.5461, 763.1920
340.0282, 735.8324
340.5103, 699.5290
340.9924, 661.8542
341.4745, 620.6651
341.9567, 580.7503
342.4388, 543.7191
342.9209, 509.0640
343.4030, 475.5406
343.8851, 442.6438
344.3672, 410.7088
344.8494, 380.6334
345.3315, 356.2253
345.8136, 327.9355
346.2957, 288.6085
346.7778, 250.4445
347.2599, 223.0009
347.7421, 206.9273
348.2242, 196.2712
348.7063, 184.9076
349.1884, 172.4649
349.6705, 163.0102
350.1526, 159.9127
350.6348, 156.4725
351.1169, 150.6075
351.5990, 142.8095
352.0811, 134.1628
352.5632, 124.9879
353.0453, 115.6648
353.5275, 108.0493
354.0096, 103.8245
354.4917, 95.85004
354.9738, 77.28522
355.4559, 55.80780
355.9380, 37.54797
356.4202, 23.37225
356.9023, 13.16425
357.3844, 9.515930
357.8665, 10.68896
358.3486, 7.058411
358.8307, 5.446289
359.3129, 19.27472
359.7950, 26.65228
360.2771, 28.25189
360.7592, 27.05292
361.2413, 21.68048
361.7234, 15.14923
362.2056, 10.44763
362.6877, 7.715637
363.1698, 5.833923
363.6519, 3.484131
364.1340, 1.394836
364.6161, 4.410461
365.0983, 24.70801
365.5804, 35.46661
366.0625, 22.03375
366.5446, 4.470886
367.0267, 27.86932
367.5089, 42.29919
367.9910, 50.41113
368.4731, 56.32489
368.9552, 57.17316
369.4373, 61.99554
369.9194, 75.08759
370.4016, 88.06110
370.8837, 95.58002
371.3658, 97.88330
371.8479, 98.66083
372.3300, 101.1782
372.8121, 105.0707
373.2943, 106.0291
373.7764, 103.5012
374.2585, 98.48737
374.7406, 89.49951
375.2227, 79.18182
375.7048, 70.88287
376.1870, 66.01794
376.6691, 62.82623
377.1512, 59.02350
377.6333, 54.55707
378.1154, 50.52386
378.5975, 48.11682
379.0797, 45.25543
379.5618, 38.85004
380.0439, 28.96210
380.5260, 21.82184
381.0081, 19.28015
381.4902, 21.60376
381.9724, 31.46930
382.4545, 49.74353
382.9366, 66.31079
383.4187, 71.90942
383.9008, 68.55951
384.3829, 73.03961
384.8651, 88.27942
385.3472, 108.0441
385.8293, 131.4678
386.3114, 157.2413
386.7935, 182.9874
387.2756, 207.8184
387.7578, 231.6589
388.2399, 254.3239
388.7220, 274.5774
389.2041, 295.7280
389.6862, 315.8583
390.1683, 338.2682
390.6505, 368.0162
391.1326, 403.3868
391.6147, 437.2575
392.0968, 462.7729
392.5789, 481.6194
393.0610, 512.1906
393.5432, 568.4311
394.0253, 615.5991
394.5074, 639.9623
394.9895, 651.4260
395.4716, 661.9751
395.9537, 675.8486
396.4359, 691.4476
396.9180, 707.0950
397.4001, 722.2461
397.8822, 733.5720
398.3643, 740.1708
398.8464, 745.2755
399.3286, 752.6324
399.8107, 760.7894
400.2928, 761.7621
400.7749, 747.2219
401.2570, 726.1346
401.7391, 711.9210
402.2213, 704.9370
402.7034, 696.2466
403.1855, 677.9312
403.6676, 651.8016
404.1497, 630.5444
404.6318, 620.9573
405.1140, 607.7563
405.5961, 584.5422
406.0782, 557.1008
406.5603, 530.1418
407.0424, 504.8817
407.5245, 484.7665
408.0067, 477.3701
408.4888, 490.1351
408.9709, 487.0184
409.4530, 448.9037
409.9351, 415.2374
410.4172, 406.8661
410.8994, 415.1041
411.3815, 419.6390
411.8636, 407.9251
412.3457, 387.4888
412.8278, 376.0872
413.3099, 374.0414
413.7921, 380.2242
414.2742, 402.2436
414.7563, 427.5351
415.2384, 447.1695
415.7205, 460.0748
416.2026, 471.5507
416.6848, 480.1334
417.1669, 489.4670
417.6490, 510.5123
418.1311, 545.7827
418.6132, 588.8355
419.0953, 636.3189
419.5775, 688.4588
420.0596, 743.9171
420.5417, 801.4741
421.0238, 863.6175
421.5059, 925.4679
421.9880, 993.6044
422.4702, 1084.353
422.9523, 1202.613
423.4344, 1334.698
423.9165, 1457.490
424.3986, 1564.870
424.8807, 1678.014
425.3629, 1795.277
425.8450, 1918.404
426.3271, 2053.309
426.8092, 2195.351
427.2913, 2333.721
427.7734, 2462.379
428.2556, 2581.443
428.7377, 2695.476
429.2198, 2812.395
429.7019, 2905.920
430.1840, 2982.269
430.6661, 3025.090
431.1483, 3018.982
431.6304, 2961.229
432.1125, 2860.551
432.5946, 2713.072
433.0767, 2527.466
433.5588, 2324.616
434.0410, 2099.721
434.5231, 1881.902
435.0052, 1696.686
435.4873, 1538.865
435.9694, 1381.838
436.4515, 1212.153
436.9337, 1055.056
437.4158, 924.9846
437.8979, 816.6708
438.3800, 722.1176
438.8621, 637.7693
439.3442, 564.1584
439.8264, 502.5544
440.3085, 457.7963
440.7906, 411.1851
441.2727, 355.9703
441.7548, 305.2718
442.2369, 267.8168
442.7191, 240.2763
443.2012, 213.7034
443.6833, 182.5389
444.1654, 149.3466
444.6475, 121.0886
445.1296, 97.80676
445.6118, 79.38379
446.0939, 71.92218
446.5760, 65.29675
447.0581, 50.15564
447.5402, 26.09540
448.0223, 4.592896
448.5045, 5.520508
448.9866, 9.044067
449.4687, 15.56744
449.9508, 25.95117
450.4329, 36.57013
450.9150, 46.16406
451.3972, 53.80334
451.8793, 56.27167
452.3614, 48.77014
452.8435, 42.59802
453.3256, 44.04816
453.8077, 47.45660
454.2899, 43.57422
454.7720, 30.96667
455.2541, 18.89111
455.7362, 19.16998
456.2183, 34.20892
456.7004, 41.14789
457.1826, 35.49390
457.6647, 25.98572
458.1468, 8.155090
458.6289, 10.11975
459.1110, 15.93506
459.5931, 3.036804
460.0753, 15.55151
460.5574, 20.57922
461.0395, 11.81635
461.5216, 5.257202
462.0037, 3.208679
462.4858, 4.685730
462.9680, 11.90747
463.4501, 23.00958
463.9322, 27.78241
464.4143, 19.04742
464.8964, 6.170593
465.3785, 3.504578
465.8607, 10.20044
466.3428, 14.95795
466.8249, 17.68646
467.3070, 20.48206
467.7891, 27.49969
468.2712, 37.69391
468.7534, 55.09192
469.2355, 84.45312
469.7176, 116.8285
470.1997, 143.5467
470.6818, 167.5348
471.1639, 200.0856
471.6461, 249.4354
472.1282, 312.0087
472.6103, 374.0323
473.0924, 433.5946
473.5745, 499.0565
474.0566, 570.6928
474.5388, 650.9255
475.0209, 742.5530
475.5030, 846.0688
475.9851, 956.8375
476.4672, 1068.317
476.9493, 1186.690
477.4315, 1326.224
477.9136, 1487.786
478.3957, 1651.541
478.8778, 1803.632
479.3599, 1947.547
479.8420, 2096.496
480.3242, 2252.425
480.8063, 2409.610
481.2884, 2580.038
481.7705, 2742.411
482.2526, 2877.643
482.7347, 2981.107
483.2169, 3057.870
483.6990, 3115.983
484.1811, 3153.698
484.6632, 3131.184
485.1453, 3027.320
485.6274, 2892.332
486.1096, 2733.226
486.5917, 2558.284
487.0738, 2373.785
487.5559, 2181.638
488.0380, 1986.633
488.5201, 1784.852
489.0023, 1584.396
489.4844, 1415.956
489.9665, 1286.062
490.4486, 1171.561
490.9307, 1054.804
491.4128, 939.0022
491.8950, 837.2764
492.3771, 753.9534
492.8592, 679.5606
493.3413, 609.4480
493.8234, 546.3616
494.3055, 495.1599
494.7877, 456.2657
495.2698, 422.8766
495.7519, 386.8516
496.2340, 347.1930
496.7161, 315.8514
497.1982, 295.8011
497.6804, 281.1237
498.1625, 271.4688
498.6446, 265.5746
499.1267, 264.1693
499.6088, 268.2020
500.0909, 268.3530
500.5730, 251.9512
501.0551, 222.7677
501.5373, 197.2659
502.0194, 176.6099
502.5015, 164.0455
502.9836, 168.3873
503.4657, 184.9045
503.9478, 184.6895
504.4300, 150.7672
504.9121, 118.3002
505.3942, 101.7271
505.8763, 94.30219
506.3584, 87.61737
506.8405, 79.66333
507.3227, 71.71912
507.8048, 64.81384
508.2869, 58.66943
508.7690, 57.24561
509.2511, 70.41376
509.7332, 76.71686
510.2154, 65.75220
510.6975, 47.25507
511.1796, 32.85889
511.6617, 25.89313
512.1439, 23.60663
512.6260, 24.96417
513.1081, 29.10699
513.5902, 31.31799
514.0723, 29.21362
514.5544, 29.59143
515.0366, 40.09302
515.5187, 58.96533
516.0008, 72.29968
516.4829, 72.51404
516.9650, 74.96411
517.4471, 85.46313
517.9293, 99.72095
518.4114, 114.6260
518.8935, 129.9530
519.3756, 145.2814
519.8577, 159.0287
520.3398, 170.9946
520.8220, 192.2292
521.3041, 228.4189
521.7862, 265.0577
522.2683, 296.5818
522.7504, 328.2080
523.2325, 366.4054
523.7147, 412.6780
524.1968, 458.3596
524.6789, 494.2673
525.1610, 525.5946
525.6431, 565.5830
526.1252, 615.9869
526.6074, 666.6044
527.0895, 708.8014
527.5716, 745.8192
528.0537, 793.0557
528.5358, 864.3398
529.0179, 925.7290
529.5001, 960.4312
529.9822, 991.0585
530.4643, 1037.699
530.9464, 1102.464
531.4285, 1178.347
531.9106, 1264.711
532.3928, 1355.392
532.8749, 1415.110
533.3570, 1429.317
533.8391, 1453.480
534.3212, 1520.288
534.8033, 1594.112
535.2855, 1639.103
535.7676, 1652.675
536.2497, 1665.570
536.7318, 1695.929
537.2139, 1729.967
537.6960, 1752.506
538.1782, 1763.174
538.6603, 1765.504
539.1424, 1761.001
539.6245, 1750.328
540.1066, 1734.649
540.5887, 1711.515
541.0709, 1687.740
541.5530, 1662.637
542.0351, 1637.745
542.5172, 1614.924
542.9993, 1592.867
543.4814, 1567.711
543.9636, 1536.515
544.4457, 1503.341
544.9278, 1478.851
545.4099, 1462.835
545.8920, 1430.424
546.3741, 1367.759
546.8563, 1301.559
547.3384, 1258.857
547.8205, 1237.585
548.3026, 1223.599
548.7847, 1222.739
549.2668, 1221.238
549.7490, 1212.822
550.2311, 1198.556
550.7132, 1178.389
551.1953, 1153.011
551.6774, 1128.781
552.1595, 1114.026
552.6417, 1109.244
553.1238, 1108.124
553.6059, 1111.695
554.0880, 1117.776
554.5701, 1129.486
555.0522, 1141.314
555.5344, 1144.278
556.0165, 1134.684
556.4986, 1128.028
556.9807, 1137.754
557.4628, 1157.171
557.9449, 1172.999
558.4271, 1183.992
558.9092, 1196.743
559.3913, 1216.456
559.8734, 1240.880
560.3555, 1260.533
560.8376, 1265.094
561.3198, 1279.608
561.8019, 1309.809
562.2840, 1346.054
562.7661, 1379.626
563.2482, 1411.931
563.7303, 1450.498
564.2125, 1501.449
564.6946, 1560.957
565.1767, 1619.826
565.6588, 1677.897
566.1409, 1739.812
566.6230, 1805.522
567.1052, 1876.701
567.5873, 1953.029
568.0694, 2034.244
568.5515, 2133.732
569.0336, 2269.430
569.5157, 2406.370
569.9979, 2517.568
570.4800, 2617.726
570.9621, 2735.891
571.4442, 2880.702
571.9263, 3037.999
572.4084, 3187.802
572.8906, 3327.721
573.3727, 3484.464
573.8548, 3664.378
574.3369, 3849.308
574.8190, 4033.196
575.3011, 4216.031
575.7833, 4399.541
576.2654, 4582.848
576.7475, 4769.182
577.2296, 4972.241
577.7117, 5172.330
578.1938, 5335.839
578.6760, 5464.891
579.1581, 5592.519
579.6402, 5741.680
580.1223, 5898.432
580.6044, 6020.220
581.0865, 6104.544
581.5686, 6156.792
582.0507, 6172.040
582.5328, 6164.235
583.0150, 6144.617
583.4971, 6108.624
583.9792, 6043.594
584.4613, 5943.462
584.9434, 5811.168
585.4255, 5644.785
585.9077, 5447.597
586.3898, 5235.675
586.8719, 5011.493
587.3540, 4782.106
587.8361, 4555.682
588.3182, 4332.585
588.8004, 4102.740
589.2825, 3860.185
589.7646, 3620.180
590.2467, 3376.213
590.7288, 3142.967
591.2109, 2936.304
591.6931, 2757.460
592.1752, 2592.101
592.6573, 2429.985
593.1394, 2271.432
593.6215, 2113.207
594.1036, 1952.646
594.5858, 1805.226
595.0679, 1675.737
595.5500, 1561.585
596.0321, 1462.552
596.5142, 1379.619
596.9963, 1292.174
597.4785, 1184.167
597.9606, 1084.082
598.4427, 1012.547
598.9248, 960.1152
599.4069, 910.5310
599.8890, 857.4089
600.3712, 799.9304
600.8533, 732.8170
601.3354, 655.4282
601.8175, 596.1298
602.2996, 561.9881
602.7817, 532.0636
603.2639, 495.8250
603.7460, 458.3575
604.2281, 427.3264
604.7102, 404.7906
605.1923, 382.2950
605.6744, 357.4628
606.1566, 330.5951
606.6387, 298.5851
607.1208, 264.1653
607.6029, 238.5286
608.0850, 228.2498
608.5671, 224.5507
609.0493, 206.9222
609.5314, 168.9630
610.0135, 141.1679
610.4956, 134.4415
610.9777, 127.0670
611.4598, 105.3184
611.9420, 76.01715
612.4241, 51.89349
612.9062, 34.73926
613.3883, 26.32220
613.8704, 37.03271
614.3525, 53.51648
614.8347, 50.72144
615.3168, 27.82007
615.7989, 6.208008
616.2810, 1.514038
616.7631, 8.800354
617.2452, 9.923950
617.7274, 2.288574
618.2095, 6.103333
618.6916, 17.30096
619.1737, 26.54742
619.6558, 31.45636
620.1379, 32.18561
620.6201, 29.28400
621.1022, 20.41022
621.5843, 12.22754
622.0664, 10.73285
622.5485, 14.51477
623.0306, 21.85699
623.5128, 32.21558
623.9949, 40.19263
624.4770, 40.68768
624.9591, 34.79755
625.4412, 31.48352
625.9233, 33.31921
626.4055, 33.61554
626.8876, 31.08521
627.3697, 27.35822
627.8518, 22.75293
628.3339, 17.84662
628.8160, 14.32910
629.2982, 13.51752
629.7803, 13.74518
630.2624, 13.99213
630.7445, 13.96643
631.2266, 12.15332
631.7087, 8.060608
632.1909, 3.794739
632.6730, 1.304260
633.1551, 0.5793460
633.6372, 2.243896
634.1193, 12.80713
634.6014, 16.12994
635.0836, 7.304504
635.5657, 7.182251
636.0478, 25.03888
636.5299, 44.15552
637.0120, 57.98297
637.4941, 61.53003
637.9763, 59.74573
638.4584, 56.16791
638.9405, 51.84839
639.4226, 52.02777
639.9047, 58.48657
640.3868, 66.57312
640.8690, 70.73877
641.3511, 70.95770
641.8332, 77.19629
642.3153, 99.30890
642.7974, 114.6214
643.2795, 113.4073
643.7617, 108.2432
644.2438, 111.0945
644.7259, 122.2874
645.2080, 132.5856
645.6901, 132.1295
646.1722, 130.8249
646.6544, 143.2982
647.1365, 166.0927
647.6186, 186.4207
648.1007, 200.5609
648.5828, 211.1353
649.0649, 220.8661
649.5471, 229.7589
650.0292, 238.2345
650.5113, 244.3112
650.9934, 253.0076
651.4755, 268.3067
651.9576, 284.4999
652.4398, 294.9670
652.9219, 300.4392
653.4040, 309.7461
653.8861, 332.1119
654.3682, 357.0481
654.8503, 372.1222
655.3325, 380.0206
655.8146, 389.3798
656.2967, 402.7528
656.7788, 416.6976
657.2609, 427.6973
657.7430, 435.8638
658.2252, 441.7196
658.7073, 442.1559
659.1894, 445.5297
659.6715, 456.2648
660.1536, 468.0804
660.6357, 477.6071
661.1179, 484.0414
661.6000, 484.8660
662.0821, 475.1531
662.5642, 462.7057
663.0463, 454.1710
663.5284, 448.2788
664.0106, 442.4833
664.4927, 436.0956
664.9748, 428.4427
665.4569, 418.5641
665.9390, 406.9756
666.4211, 399.0695
666.9033, 399.7435
667.3854, 393.3013
667.8675, 366.9653
668.3496, 340.0550
668.8317, 329.0694
669.3138, 331.2998
669.7960, 329.2246
670.2781, 313.7933
670.7602, 296.3878
671.2423, 284.4799
671.7244, 275.0413
672.2065, 263.1311
672.6887, 248.0712
673.1708, 232.7319
673.6529, 219.5793
674.1350, 207.7992
674.6171, 193.1336
675.0992, 172.8717
675.5814, 162.0735
676.0635, 170.5002
676.5456, 179.6264
677.0277, 172.4914
677.5098, 153.5876
677.9919, 138.2680
678.4741, 131.8904
678.9562, 125.5048
679.4383, 114.0102
679.9204, 101.5255
680.4025, 92.88165
680.8846, 87.86401
681.3668, 83.37885
681.8489, 77.76773
682.3310, 71.70859
682.8131, 65.76782
683.2952, 59.85129
683.7773, 55.26935
684.2595, 52.36853
684.7416, 50.88092
685.2237, 52.00098
685.7058, 54.48444
686.1879, 52.75818
686.6700, 40.98886
687.1522, 32.55783
687.6343, 33.72299
688.1164, 36.23587
688.5985, 33.01633
689.0806, 26.51532
689.5627, 24.47110
690.0449, 30.93372
690.5270, 37.56375
691.0091, 33.07785
691.4912, 20.63525
691.9733, 10.36752
692.4554, 3.615570
692.9376, 1.298828
693.4197, 5.047668
693.9018, 10.79718
694.3839, 9.674072
694.8660, 3.958862
695.3481, 9.894592
695.8303, 2.387939
696.3124, 6.091003
696.7945, 11.50989
697.2766, 14.86783
697.7587, 18.48074
698.2408, 23.00473
698.7230, 24.47589
699.2051, 16.79657
699.6872, 6.965729
700.1693, 5.599823
700.6514, 10.59729
701.1335, 12.45844
701.6157, 7.507507
702.0978, 1.191315
702.5799, 10.96591
703.0620, 22.07498
703.5441, 22.90848
704.0262, 8.240601
704.5084, 5.951782
704.9905, 17.67770
705.4726, 24.41504
705.9547, 20.55621
706.4368, 6.560303
706.9189, 0.8476260
707.4011, 5.502014
707.8832, 16.02167
708.3653, 30.13803
708.8474, 42.48718
709.3295, 44.49664
709.8116, 36.13788
710.2938, 26.66714
710.7759, 22.75977
711.2580, 23.95544
711.7401, 32.45517
712.2222, 48.41373
712.7043, 52.32059
713.1865, 36.28299
713.6686, 18.86545
714.1507, 16.46240
714.6328, 26.90640
715.1149, 34.44940
715.5970, 41.15143
716.0792, 42.11990
716.5613, 29.18042
717.0434, 17.32666
717.5255, 19.33249
718.0076, 30.53320
718.4897, 37.23444
718.9719, 33.17181
719.4540, 26.68616
719.9361, 24.71017
720.4182, 25.91830
720.9003, 28.25250
721.3824, 31.28149
721.8646, 33.98721
722.3467, 35.88419
722.8288, 36.81644
723.3109, 36.32025
723.7930, 34.05905
724.2751, 31.79214
724.7573, 28.18353
725.2394, 26.72125
725.7215, 32.72917
726.2036, 39.73325
726.6857, 38.68306
727.1678, 28.05344
727.6500, 20.57814
728.1321, 20.56946
728.6142, 24.01094
729.0963, 30.78716
729.5784, 38.25487
730.0605, 42.89496
730.5427, 43.75539
731.0248, 41.78024
731.5069, 37.11153
731.9890, 30.72073
732.4711, 24.51767
732.9532, 18.52527
733.4354, 15.57845
733.9175, 16.72287
734.3996, 19.65039
734.8817, 22.20894
735.3638, 24.57596
735.8459, 28.56612
736.3281, 36.74342
736.8102, 42.81779
737.2923, 46.86658
737.7744, 48.35513
738.2565, 44.82854
738.7386, 38.64722
739.2208, 35.84735
739.7029, 39.55573
740.1850, 43.36227
740.6671, 40.58914
741.1492, 36.54271
741.6313, 43.64047
742.1135, 57.63104
742.5956, 55.94336
743.0777, 26.96309
743.5598, 8.499222
744.0419, 14.22949
744.5240, 10.29292
745.0062, 23.61346
745.4883, 22.70677
745.9704, 21.44304
746.4525, 26.00371
746.9346, 32.19341
747.4167, 33.18504
747.8989, 27.92943
748.3810, 27.70485
748.8631, 37.19144
749.3452, 45.98325
749.8273, 50.46642
750.3094, 52.76189
750.7916, 56.41147
751.2737, 61.12971
751.7558, 61.78252
752.2379, 52.45389
752.7200, 40.65556
753.2021, 36.93921
753.6843, 39.15390
754.1664, 39.84366
754.6485, 37.63281
755.1306, 35.33218
755.6127, 34.90329
756.0948, 36.04471
756.5770, 38.06053
757.0591, 41.01721
757.5412, 43.33832
758.0233, 45.00072
758.5054, 46.82736
758.9875, 49.93875
759.4697, 52.68013
759.9518, 51.77193
760.4339, 46.02963
760.9160, 40.66817
761.3981, 37.78815
761.8802, 36.03175
762.3624, 32.79398
762.8445, 30.07243
763.3266, 34.10019
763.8087, 44.44632
764.2908, 47.73410
764.7729, 26.07208
765.2551, 1.786240
765.7372, 6.345963
766.2193, 6.974289
766.7014, 19.36787
767.1835, 26.26210
767.6656, 31.86197
768.1478, 40.15732
768.6299, 48.90793
769.1120, 50.29738
769.5941, 41.24237
770.0762, 36.81401
770.5583, 40.99451
771.0405, 46.28200
771.5226, 49.17969
772.0047, 49.64764
772.4868, 46.82248
772.9689, 38.37582
773.4510, 32.71780
773.9332, 34.50383
774.4153, 36.15598
774.8974, 30.36813
775.3795, 22.67517
775.8616, 22.49646
776.3438, 31.83716
776.8259, 43.38074
777.3080, 55.11008
777.7901, 63.52188
778.2722, 57.89777
778.7543, 43.81363
779.2365, 42.97473
779.7186, 60.47876
780.2007, 81.42725
780.6828, 92.78741
781.1649, 95.27374
781.6470, 91.43726
782.1292, 77.39270
782.6113, 75.81226
783.0934, 96.95428
783.5755, 118.3405
784.0576, 122.6313
784.5397, 116.4973
785.0219, 119.8621
785.5040, 138.2947
785.9861, 152.3079
786.4682, 154.1294
786.9503, 157.1733
787.4324, 171.3879
787.9146, 189.8923
788.3967, 201.4405
788.8788, 203.9532
789.3609, 207.0266
789.8430, 222.4076
790.3251, 237.1600
790.8073, 234.2627
791.2894, 219.3992
791.7715, 205.3331
792.2536, 195.2093
792.7357, 187.5560
793.2178, 181.5161
793.7000, 176.3274
794.1821, 171.7135
794.6642, 168.2278
795.1463, 151.8995
795.6284, 115.9208
796.1105, 84.46814
796.5927, 74.09689
797.0748, 77.08331
797.5569, 75.10123
798.0390, 67.26077
798.5211, 56.63165
799.0032, 35.23682
799.4854, 20.78513
799.9675, 27.31845
800.4496, 39.12625
800.9317, 34.73453
801.4138, 12.76038
801.8959, 1.260406
802.3781, 10.08282
802.8602, 26.77597
803.3423, 41.92325
803.8244, 51.12057
804.3065, 43.25775
804.7886, 21.93622
805.2708, 7.366486
805.7529, 12.50916
806.2350, 27.17133
806.7171, 38.29163
807.1992, 45.74423
807.6813, 47.92288
808.1635, 44.76440
808.6456, 39.88815
809.1277, 34.67758
809.6098, 30.24307
810.0919, 28.60886
810.5740, 30.05759
811.0562, 30.76443
811.5383, 30.68246
812.0204, 29.98972
812.5025, 28.11407
812.9846, 26.20526
813.4667, 26.08090
813.9489, 27.24371
814.4310, 26.25748
814.9131, 18.55176
815.3952, 14.56708
815.8773, 22.83063
816.3594, 30.05786
816.8416, 24.21790
817.3237, 9.770386
817.8058, 2.692078
818.2879, 9.798279
818.7700, 12.44415
819.2521, 9.031189
819.7343, 3.079346
820.2164, 1.689240
820.6985, 5.025635
821.1806, 6.573364
821.6627, 6.380859
822.1448, 5.725861
822.6270, 5.796967
823.1091, 6.214569
823.5912, 7.106415
824.0733, 8.692566
824.5554, 4.889984
825.0375, 7.151917
825.5197, 13.59464
826.0018, 2.739655
826.4839, 18.30688
826.9660, 28.01517
827.4481, 22.92355
827.9302, 17.07309
828.4124, 7.083771
828.8945, 1.068665
829.3766, 6.187805
829.8587, 14.35660
830.3408, 15.46735
830.8229, 9.129730
831.3051, 6.180939
831.7872, 12.70718
832.2693, 17.70889
832.7514, 13.77100
833.2335, 8.899536
833.7156, 12.74091
834.1978, 22.93097
834.6799, 29.29984
835.1620, 27.45779
835.6441, 22.45349
836.1262, 19.95087
836.6083, 17.48898
837.0905, 6.627136
837.5726, 8.279266
838.0547, 10.31094
838.5368, 6.015869
839.0189, 25.93121
839.5010, 33.05862
839.9832, 30.87994
840.4653, 32.19089
840.9474, 36.83441
841.4295, 39.47836
841.9116, 39.04376
842.3937, 35.33432
842.8759, 27.20560
843.3580, 16.96530
843.8401, 12.15842
844.3222, 13.01138
844.8043, 19.19528
845.2864, 34.87170
845.7686, 49.19058
846.2507, 59.56870
846.7328, 64.76205
847.2149, 61.13409
847.6970, 47.76071
848.1791, 40.11026
848.6613, 42.84314
849.1434, 47.17007
849.6255, 55.83234
850.1076, 60.72342
850.5897, 50.61267
851.0718, 30.67947
851.5540, 17.51385
852.0361, 17.60526
852.5182, 22.72006
853.0003, 31.45474
853.4824, 39.68842
853.9645, 42.38922
854.4467, 41.09619
854.9288, 39.87305
855.4109, 39.91965
855.8930, 39.58948
856.3751, 36.33728
856.8572, 33.01523
857.3394, 37.17792
857.8215, 46.38959
858.3036, 48.64883
858.7857, 41.44662
859.2678, 33.65076
859.7499, 32.73077
860.2321, 36.37061
860.7142, 40.84790
861.1963, 46.59641
861.6784, 46.00369
862.1605, 36.84262
862.6426, 25.64343
863.1248, 14.66498
863.6069, 7.101501
864.0890, 7.854919
864.5711, 16.68048
865.0532, 22.40479
865.5353, 23.78696
866.0175, 24.18741
866.4996, 23.29654
866.9817, 22.13940
867.4638, 19.87875
867.9459, 18.13361
868.4280, 21.09500
868.9102, 31.33398
869.3923, 37.57388
869.8744, 36.32114
870.3565, 31.68887
870.8386, 23.09967
871.3207, 14.03336
871.8029, 8.337769
872.2850, 6.300049
872.7671, 6.027344
873.2492, 5.479858
873.7313, 7.237244
874.2134, 16.34613
874.6956, 26.94495
875.1777, 32.12253
875.6598, 31.99414
876.1419, 27.77310
876.6240, 20.31949
877.1061, 14.34024
877.5883, 14.56052
878.0704, 19.29364
878.5525, 28.31821
879.0346, 39.21255
879.5167, 39.59280
879.9988, 27.71851
880.4810, 18.41525
880.9631, 23.30023
881.4452, 35.34589
881.9273, 39.29736
882.4094, 35.19742
882.8915, 23.89178
883.3737, 3.390320
883.8558, 7.803467
884.3379, 0.3117370
884.8200, 13.81180
885.3021, 18.03857
885.7842, 12.48340
886.2664, 9.199585
886.7485, 8.937042
887.2306, 9.043304
887.7127, 8.563690
888.1948, 9.249542
888.6769, 13.41534
889.1591, 19.20450
889.6412, 22.11285
890.1233, 21.80991
890.6054, 19.92490
891.0875, 16.82181
891.5696, 11.75204
892.0518, 1.728210
892.5339, 12.60744
893.0160, 6.510803
893.4981, 12.77933
893.9802, 25.97382
894.4623, 26.24365
894.9445, 23.58652
895.4266, 17.59720
895.9087, 13.69879
896.3908, 19.80524
896.8729, 29.88177
897.3550, 32.52887
897.8372, 25.44275
898.3193, 18.94064
898.8014, 22.74808
899.2835, 26.85098
899.7656, 17.01215
900.2477, 3.900574
900.7299, 7.618744
901.2120, 25.87595
901.6941, 40.17734
902.1762, 41.30167
902.6583, 36.33896
903.1404, 31.16861
903.6226, 26.90964
904.1047, 27.12500
904.5868, 30.74326
905.0689, 32.99353
905.5510, 32.69107
906.0331, 31.00247
906.5153, 28.20587
906.9974, 26.06155
907.4795, 28.24872
907.9616, 34.15512
908.4437, 35.91290
908.9258, 32.66544
909.4080, 31.47260
909.8900, 35.93790
910.3721, 41.34531
910.8542, 41.21692
911.3364, 36.04156
911.8185, 32.49808
912.3006, 31.70428
912.7827, 26.47760
913.2648, 13.27490
913.7469, 1.700562
914.2291, 0.4321900
914.7112, 2.482330
915.1933, 0.5970760
915.6754, 12.40059
916.1575, 12.30295
916.6396, 9.982513
917.1218, 26.64594
917.6039, 29.79196
918.0860, 24.98489
918.5681, 11.08249
919.0502, 7.891541
919.5323, 11.22290
920.0145, 16.41235
920.4966, 32.77603
920.9787, 27.52145
921.4608, 19.34918
921.9429, 15.12903
922.4250, 13.40775
922.9072, 11.98712
923.3893, 10.80746
923.8714, 11.14084
924.3535, 14.86484
924.8356, 18.21890
925.3177, 22.63879
925.7999, 24.13068
926.2820, 15.41367
926.7641, 2.278809
927.2462, 4.573334
927.7283, 2.494659
928.2104, 1.966370
928.6926, 9.079620
929.1747, 13.68576
929.6568, 8.290344
930.1389, 1.293457
930.6210, 5.130249
931.1031, 17.22577
931.5853, 24.63419
932.0674, 22.28802
932.5495, 17.29428
933.0316, 14.43661
933.5137, 12.76004
933.9958, 11.01422
934.4780, 10.40042
934.9601, 13.51974
935.4422, 20.13348
935.9243, 26.89151
936.4064, 32.76801
936.8885, 36.18784
937.3707, 31.24124
937.8528, 23.52838
938.3349, 28.26785
938.8170, 41.78683
939.2991, 44.98679
939.7813, 32.33725
940.2634, 17.65378
940.7455, 14.09161
941.2276, 16.26163
941.7097, 9.639709
942.1918, 1.471466
942.6740, 1.147461
943.1561, 17.94308
943.6382, 31.31470
944.1203, 33.08713
944.6024, 29.19580
945.0845, 26.33334
945.5667, 24.68100
946.0488, 25.74472
946.5309, 29.38861
947.0130, 31.62589
947.4951, 31.68024
947.9772, 32.38614
948.4594, 36.15396
948.9415, 38.55710
949.4236, 29.39981
949.9057, 8.815094
950.3878, 0.3490910
950.8699, 4.533752
951.3521, 10.13071
951.8342, 12.78745
952.3163, 15.10770
952.7984, 19.15677
953.2805, 24.21207
953.7626, 28.82217
954.2448, 34.03543
954.7269, 31.89774
955.2090, 18.35965
955.6911, 10.68008
956.1732, 16.02069
956.6553, 26.10498
957.1375, 34.95450
957.6196, 41.41153
958.1017, 39.03659
958.5838, 22.19598
959.0659, 12.40567
959.5480, 13.11823
960.0302, 15.45364
960.5123, 17.59512
960.9944, 17.94604
961.4765, 13.82748
961.9586, 5.702148
962.4407, 0.3226620
962.9229, 6.837585
963.4050, 6.083984
963.8871, 7.893127
964.3692, 21.73248
964.8513, 31.43027
965.3334, 36.64404
965.8156, 35.65479
966.2977, 28.08099
966.7798, 22.16864
967.2619, 18.50711
967.7440, 15.55643
968.2261, 13.43356
968.7083, 11.69479
969.1904, 10.16003
969.6725, 8.823242
970.1546, 8.134399
970.6367, 8.406036
971.1188, 6.374542
971.6010, 7.430847
972.0831, 11.13669
972.5652, 13.73917
973.0473, 37.19119
973.5294, 33.43042
974.0115, 15.06882
974.4937, 8.806976
974.9758, 17.96884
975.4579, 28.07834
975.9400, 42.56238
976.4221, 49.87445
976.9042, 39.90616
977.3864, 26.07126
977.8685, 19.98389
978.3506, 18.90680
978.8327, 16.64938
979.3148, 11.83188
979.7969, 7.548584
980.2791, 2.794678
980.7612, 0.9379270
981.2433, 7.899323
981.7254, 14.84836
982.2075, 10.49521
982.6896, 1.085358
983.1718, 5.152344
983.6539, 3.692871
984.1360, 12.21030
984.6181, 17.73346
985.1002, 19.34659
985.5823, 15.81882
986.0645, 9.944427
986.5466, 3.253204
987.0287, 3.466431
987.5108, 8.551727
987.9929, 12.59537
988.4750, 12.23114
988.9572, 1.830383
989.4393, 8.127014
989.9214, 13.47696
990.4035, 13.41788
990.8856, 3.848511
991.3677, 12.18423
991.8499, 22.13547
992.3320, 21.32074
992.8141, 15.96240
993.2962, 5.426971
993.7783, 5.230682
994.2604, 14.96176
994.7426, 21.35461
995.2247, 18.34192
995.7068, 8.330078
996.1889, 5.396576
996.6710, 19.17203
997.1531, 29.26328
997.6353, 20.22723
998.1174, 10.49023
998.5995, 14.92459
999.0816, 25.85947
999.5637, 31.88153
1000.046, 31.63562
1000.528, 31.25363
1001.010, 32.08499
1001.492, 35.01913
1001.974, 44.19919
1002.456, 52.14145
1002.939, 51.19489
1003.421, 46.58252
1003.903, 44.55066
1004.385, 46.64719
1004.867, 54.80090
1005.349, 75.76883
1005.831, 90.46881
1006.313, 86.35010
1006.795, 76.10181
1007.278, 65.89926
1007.760, 57.47382
1008.242, 53.08774
1008.724, 52.88589
1009.206, 51.39786
1009.688, 43.35410
1010.170, 39.75510
1010.652, 52.60977
1011.135, 64.55698
1011.617, 60.68765
1012.099, 49.02200
1012.581, 42.00885
1013.063, 40.50589
1013.545, 36.15189
1014.027, 21.88242
1014.509, 12.42377
1014.991, 18.89777
1015.474, 27.06216
1015.956, 26.99313
1016.438, 22.35825
1016.920, 18.26431
1017.402, 15.50055
1017.884, 13.46262
1018.366, 11.58978
1018.848, 11.12741
1019.331, 16.63129
1019.813, 19.16791
1020.295, 8.439362
1020.777, 6.228088
1021.259, 11.76920
1021.741, 7.269165
1022.223, 1.671387
1022.705, 3.121063
1023.187, 8.135620
1023.670, 14.01080
1024.152, 19.85376
1024.634, 26.15997
1025.116, 31.48901
1025.598, 33.72141
1026.080, 33.16980
1026.562, 31.93063
1027.044, 25.14053
1027.526, 28.56601
1028.009, 57.63458
1028.491, 83.79013
1028.973, 89.60696
1029.455, 87.21564
1029.937, 91.69031
1030.419, 103.5474
1030.901, 112.5772
1031.383, 115.6529
1031.866, 119.8336
1032.348, 129.5662
1032.830, 136.3130
1033.312, 131.3468
1033.794, 126.0147
1034.276, 130.6429
1034.758, 144.7821
1035.240, 165.3840
1035.723, 200.5873
1036.205, 223.0068
1036.687, 220.8441
1037.169, 219.3085
1037.651, 224.8922
1038.133, 235.2381
1038.615, 249.2528
1039.097, 266.4323
1039.579, 284.4115
1040.062, 302.6854
1040.544, 322.9033
1041.026, 342.2847
1041.508, 368.6769
1041.990, 408.8405
1042.472, 449.4742
1042.954, 478.4978
1043.436, 501.4506
1043.918, 532.5147
1044.401, 571.5152
1044.883, 618.7590
1045.365, 674.2679
1045.847, 737.2752
1046.329, 807.2451
1046.811, 885.9531
1047.293, 975.0447
1047.775, 1071.812
1048.258, 1170.710
1048.740, 1270.245
1049.222, 1385.958
1049.704, 1517.721
1050.186, 1666.005
1050.668, 1831.527
1051.150, 2014.921
1051.632, 2214.940
1052.115, 2432.736
1052.597, 2668.023
1053.079, 2922.971
1053.561, 3215.566
1054.043, 3549.750
1054.525, 3890.193
1055.007, 4231.673
1055.489, 4568.451
1055.971, 4896.125
1056.453, 5212.786
1056.936, 5521.689
1057.418, 5814.877
1057.900, 6072.079
1058.382, 6290.912
1058.864, 6422.190
1059.346, 6461.301
1059.828, 6429.693
1060.310, 6335.589
1060.793, 6176.381
1061.275, 5944.960
1061.757, 5654.935
1062.239, 5328.093
1062.721, 4972.687
1063.203, 4624.353
1063.685, 4287.926
1064.167, 3962.285
1064.650, 3648.299
1065.132, 3356.296
1065.614, 3095.290
1066.096, 2855.810
1066.578, 2620.567
1067.060, 2396.608
1067.542, 2206.330
1068.024, 2043.193
1068.506, 1886.498
1068.989, 1733.066
1069.471, 1592.371
1069.953, 1470.451
1070.435, 1362.813
1070.917, 1267.697
1071.399, 1182.238
1071.881, 1101.182
1072.363, 1027.517
1072.845, 970.6995
1073.328, 926.9575
1073.810, 881.7581
1074.292, 829.6108
1074.774, 773.6461
1075.256, 705.3658
1075.738, 646.4606
1076.220, 621.0116
1076.702, 606.7607
1077.184, 578.0151
1077.667, 540.5564
1078.149, 514.0123
1078.631, 502.9263
1079.113, 491.3900
1079.595, 472.9103
1080.077, 454.6929
1080.559, 441.8492
1081.041, 428.6578
1081.524, 406.9956
1082.006, 383.1803
1082.488, 367.4769
1082.970, 360.8526
1083.452, 357.8219
1083.934, 363.4065
1084.416, 363.8763
1084.898, 354.8330
1085.380, 344.1630
1085.863, 331.5204
1086.345, 322.1035
1086.827, 324.0280
1087.309, 333.7895
1087.791, 333.3949
1088.273, 318.0965
1088.755, 304.3649
1089.237, 291.8663
1089.719, 283.6537
1090.202, 284.0144
1090.684, 280.9900
1091.166, 264.2339
1091.648, 239.1657
1092.130, 217.8570
1092.612, 200.5447
1093.094, 182.5638
1093.576, 163.2553
1094.059, 150.5062
1094.541, 146.2227
1095.023, 143.1505
1095.505, 137.2042
1095.987, 130.5970
1096.469, 127.1383
1096.951, 125.5417
1097.433, 119.5715
1097.916, 110.6824
1098.398, 102.4578
1098.880, 95.66934
1099.362, 93.10699
1099.844, 95.45358
1100.326, 97.03903
1100.808, 92.61029
1101.290, 85.39426
1101.772, 79.68750
1102.255, 74.92990
1102.737, 67.89124
1103.219, 61.50714
1103.701, 65.37021
1104.183, 79.06021
1104.665, 90.02133
1105.147, 91.39548
1105.629, 90.05954
1106.111, 91.27551
1106.594, 92.71524
1107.076, 92.48712
1107.558, 90.36115
1108.040, 83.53659
1108.522, 75.03220
1109.004, 73.11966
1109.486, 80.22366
1109.968, 89.55630
1110.451, 103.4479
1110.933, 112.7885
1111.415, 113.4221
1111.897, 109.0830
1112.379, 99.45718
1112.861, 89.27438
1113.343, 86.48413
1113.825, 91.37332
1114.307, 93.91827
1114.790, 95.73602
1115.272, 91.61896
1115.754, 77.96884
1116.236, 64.41336
1116.718, 54.41248
1117.200, 45.58563
1117.682, 34.94360
1118.164, 24.22787
1118.646, 19.08005
1119.129, 19.48785
1119.611, 28.05737
1120.093, 47.12573
1120.575, 53.35782
1121.057, 40.60425
1121.539, 25.52328
1122.021, 17.83368
1122.503, 16.06638
1122.986, 20.17697
1123.468, 26.96320
1123.950, 23.17963
1124.432, 12.14175
1124.914, 8.222504
1125.396, 11.73557
1125.878, 15.75238
1126.360, 17.71127
1126.843, 18.82697
1127.325, 20.78024
1127.807, 20.45502
1128.289, 10.66370
1128.771, 0.7962040
1129.253, 2.662903
1129.735, 1.191254
1130.217, 3.309204
1130.699, 2.765198
1131.182, 2.410645
1131.664, 3.560730
1132.146, 3.499786
1132.628, 1.094116
1133.110, 4.742096
1133.592, 6.140564
1134.074, 3.841278
1134.556, 8.403931
1135.038, 23.27957
1135.521, 25.26080
1136.003, 12.35571
1136.485, 3.528900
1136.967, 3.709961
1137.449, 0.1760250
1137.931, 12.17291
1138.413, 20.14496
1138.895, 17.14917
1139.378, 9.814545
1139.860, 3.845154
1140.342, 0.3456730
1140.824, 0.4109500
1141.306, 4.628845
1141.788, 2.578278
1142.270, 7.538391
1142.752, 10.56693
1143.234, 3.036407
1143.717, 5.659485
1144.199, 10.23752
1144.681, 11.64944
1145.163, 10.93747
1145.645, 7.983673
1146.127, 0.7046510
1146.609, 7.740723
1147.091, 11.54730
1147.573, 10.96725
1148.056, 7.030945
1148.538, 0.9876710
1149.020, 0.9338380
1149.502, 6.635895
1149.984, 14.64374
1150.466, 15.26932
1150.948, 13.39127
1151.430, 12.73798
1151.913, 12.74991
1152.395, 13.87439
1152.877, 14.52853
1153.359, 9.248505
1153.841, 4.457977
1154.323, 9.623444
1154.805, 7.158569
1155.287, 18.92865
1155.770, 15.28531
1156.252, 9.945709
1156.734, 9.241974
1157.216, 11.36517
1157.698, 15.26691
1158.180, 20.07971
1158.662, 19.99854
1159.144, 13.78043
1159.626, 8.079865
1160.109, 2.287811
1160.591, 2.498047
1161.073, 10.90515
1161.555, 20.19037
1162.037, 26.05994
1162.519, 26.53946
1163.001, 15.46869
1163.483, 1.236115
1163.965, 5.080414
1164.448, 0.3158870
1164.930, 4.652802
1165.412, 7.070618
1165.894, 9.818268
1166.376, 13.36447
1166.858, 15.80560
1167.340, 16.35913
1167.822, 14.41144
1168.305, 4.370117
1168.787, 3.201965
1169.269, 4.048157
1169.751, 16.73291
1170.233, 24.29428
1170.715, 26.47275
1171.197, 26.21118
1171.679, 24.11945
1172.161, 20.25513
1172.644, 10.27521
1173.126, 5.282166
1173.608, 11.27264
1174.090, 15.90930
1174.572, 11.65509
1175.054, 6.982452
1175.536, 11.80011
1176.018, 23.55484
1176.500, 31.41626
1176.983, 35.76407
1177.465, 34.20389
1177.947, 26.64383
1178.429, 19.18628
1178.911, 13.20822
1179.393, 11.45462
1179.875, 15.46176
1180.357, 21.52118
1180.840, 26.30539
1181.322, 29.43124
1181.804, 28.99542
1182.286, 27.22028
1182.768, 28.85873
1183.250, 32.10156
1183.732, 31.72867
1184.214, 27.60587
1184.697, 24.63376
1185.179, 25.28296
1185.661, 24.90323
1186.143, 16.99170
1186.625, 13.26404
1187.107, 25.40027
1187.589, 37.95157
1188.071, 36.77429
1188.553, 28.98618
1189.036, 28.23276
1189.518, 33.83099
1190.000, 32.32932
1190.482, 19.20493
1190.964, 14.57584
1191.446, 21.95197
1191.928, 26.69147
1192.410, 24.64096
1192.892, 18.07657
1193.375, 7.754913
1193.857, 1.217865
1194.339, 0.6947330
1194.821, 9.564941
1195.303, 14.42465
1195.785, 15.36938
1196.267, 12.41736
1196.749, 8.277435
1197.232, 10.15915
1197.714, 18.77185
1198.196, 25.91092
1198.678, 26.25125
1199.160, 26.45978
1199.642, 33.34860
1200.124, 39.58875
1200.606, 39.63367
1201.089, 36.94009
1201.571, 35.86780
1202.053, 34.07126
1202.535, 24.06622
1203.017, 4.847778
1203.499, 3.674194
1203.981, 4.724548
1204.463, 8.560150
1204.945, 3.838104
1205.427, 4.394623
1205.910, 16.26160
1206.392, 26.78061
1206.874, 25.90109
1207.356, 20.32159
1207.838, 22.95618
1208.320, 29.64816
1208.802, 22.67081
1209.284, 6.895874
1209.767, 2.906464
1210.249, 4.983521
1210.731, 1.616211
1211.213, 15.49799
1211.695, 26.33847
1212.177, 28.22363
1212.659, 28.35098
1213.141, 30.37991
1213.624, 31.17413
1214.106, 28.24283
1214.588, 23.84003
1215.070, 16.29572
1215.552, 9.642853
1216.034, 13.94638
1216.516, 29.54752
1216.998, 34.53317
1217.480, 20.75925
1217.963, 20.25818
1218.445, 42.60059
1218.927, 51.07840
1219.409, 32.53793
1219.891, 14.99094
1220.373, 17.26468
1220.855, 27.84839
1221.337, 27.31152
1221.819, 20.61096
1222.302, 21.35638
1222.784, 26.05991
1223.266, 27.47757
1223.748, 25.16913
1224.230, 18.44803
1224.712, 9.062744
1225.194, 5.641144
1225.676, 12.97177
1226.159, 21.26718
1226.641, 26.91632
1227.123, 30.76547
1227.605, 36.08078
1228.087, 36.70435
1228.569, 20.74716
1229.051, 2.748047
1229.533, 4.018402
1230.016, 20.59818
1230.498, 30.12500
1230.980, 31.79773
1231.462, 31.43719
1231.944, 29.28571
1232.426, 20.69965
1232.908, 3.879578
1233.390, 5.058136
1233.872, 1.815430
1234.354, 10.88812
1234.837, 8.843384
1235.319, 3.732910
1235.801, 7.843140
1236.283, 15.01010
1236.765, 16.46552
1237.247, 15.23337
1237.729, 16.85559
1238.211, 21.88309
1238.694, 21.51694
1239.176, 13.83212
1239.658, 11.08670
1240.140, 20.68652
1240.622, 27.59473
1241.104, 26.06461
1241.586, 27.39291
1242.068, 34.71841
1242.551, 41.04648
1243.033, 41.41483
1243.515, 35.68759
1243.997, 19.85983
1244.479, 1.510254
1244.961, 0.4932560
1245.443, 17.18927
1245.925, 27.03156
1246.407, 27.82822
1246.890, 25.93771
1247.372, 23.67142
1247.854, 22.01984
1248.336, 21.40021
1248.818, 21.30673
1249.300, 21.46323
1249.782, 22.86469
1250.264, 29.95389
1250.746, 33.98428
1251.229, 27.20212
1251.711, 16.10477
1252.193, 12.20724
1252.675, 12.31201
1253.157, 13.67484
1253.639, 14.54099
1254.121, 17.23395
1254.603, 21.43753
1255.086, 31.83621
1255.568, 48.93021
1256.050, 55.64520
1256.532, 44.69482
1257.014, 30.45941
1257.496, 25.52420
1257.978, 24.77661
1258.460, 18.91980
1258.943, 16.38126
1259.425, 22.96820
1259.907, 31.58643
1260.389, 32.32300
1260.871, 26.64481
1261.353, 20.05722
1261.835, 13.37802
1262.317, 8.264587
1262.799, 5.641541
1263.281, 4.142517
1263.764, 3.956390
1264.246, 4.393555
1264.728, 5.671906
1265.210, 5.557434
1265.692, 2.295959
1266.174, 1.029572
1266.656, 0.1156920
1267.138, 3.425568
1267.621, 6.708771
1268.103, 9.230560
1268.585, 8.174011
1269.067, 2.470673
1269.549, 1.803223
1270.031, 6.610352
1270.513, 7.940826
1270.995, 5.547241
1271.478, 0.0000000E+00
##END=



