##NAMES=Fluorapophyllite-(K)
##RRUFFID=R050021
##IDEAL CHEMISTRY=KCa_4_Si_8_O_20_F&#183;8H_2_O
##LOCALITY=Poona, Maharashtra State, India
##OWNER=RRUFF
##SOURCE=Eugene Schlepp
##DESCRIPTION=Colorless tetragonal prisms
##STATUS=The identification of this mineral has been confirmed by X-ray diffraction and chemical analysis
##URL=rruff.info/R050021
##MEASURED CHEMISTRY=(K_0.98_Na_0.02_)_Σ=1_Ca_4.00_Si_8.00_O_20_(F_0.84_(OH)_0.16_)_Σ=1_·8H_2_O
71.048, 0.000
72.445, 45.543
73.842, 986.269
75.239, 1067.694
76.635, 2363.255
78.031, 3372.403
79.427, 5896.532
80.823, 8898.089
82.218, 12571.765
83.614, 17799.412
85.009, 23212.691
86.404, 26624.201
87.798, 26158.113
89.193, 22500.357
90.587, 17933.523
91.981, 14370.488
93.375, 10414.354
94.768, 6933.360
96.161, 4536.555
97.554, 2949.083
98.947, 2737.180
100.340, 3434.025
101.732, 5354.816
103.124, 8543.693
104.516, 14216.767
105.908, 22024.109
107.300, 27584.453
108.691, 25637.150
110.082, 18245.586
111.473, 12009.354
112.864, 7724.944
114.254, 5601.765
115.644, 4646.560
117.034, 5048.561
118.424, 11906.729
119.813, 16463.709
121.203, 15612.830
122.592, 16700.992
123.981, 11574.493
125.369, 8723.646
126.758, 6973.750
128.146, 5839.752
129.534, 6143.604
130.922, 7100.262
132.309, 8864.663
133.696, 9212.740
135.083, 7996.451
136.470, 5326.772
137.857, 3376.676
139.243, 1701.138
140.630, 839.127
142.016, 199.623
143.401, 220.346
144.787, 429.230
146.172, 611.554
147.557, 685.489
148.942, 732.048
150.327, 660.215
151.711, 562.725
153.096, 322.596
154.480, 93.656
155.863, 609.666
157.247, 1398.600
158.630, 2497.590
160.013, 3917.715
161.396, 5302.023
162.779, 6094.984
164.161, 5902.271
165.544, 5537.212
166.926, 4721.253
168.308, 3650.007
169.689, 2217.854
171.070, 1142.956
172.452, 270.308
173.833, 71.127
175.213, 195.402
176.594, 29.525
177.974, 133.506
179.354, 494.693
180.734, 1397.032
182.114, 2425.520
183.493, 3710.155
184.872, 4791.937
186.251, 5346.863
187.630, 4935.933
189.008, 4261.146
190.387, 3720.444
191.765, 3610.513
193.143, 3896.219
194.520, 4377.690
195.898, 5128.183
197.275, 6053.843
198.652, 7339.655
200.029, 8652.614
201.405, 10629.710
202.782, 13209.935
204.158, 17176.277
205.534, 22099.719
206.909, 28853.141
208.285, 36054.660
209.660, 40544.301
211.035, 41990.047
212.410, 39005.902
213.784, 32293.865
215.159, 25983.779
216.533, 20281.121
217.907, 16201.170
219.281, 13234.188
220.654, 11026.297
222.027, 9890.502
223.400, 9280.795
224.773, 9503.176
226.146, 10464.646
227.518, 11258.192
228.891, 12295.570
230.263, 12754.803
231.634, 12257.347
233.006, 11290.328
234.377, 9591.901
235.748, 7699.391
237.119, 6019.215
238.490, 4772.357
239.860, 3651.501
241.231, 2855.037
242.601, 2099.547
243.970, 1460.604
245.340, 1092.906
246.709, 834.221
248.079, 503.347
249.448, 255.137
250.816, 206.484
252.185, 23.690
253.553, 25.478
254.921, 86.937
256.289, 206.229
257.657, 142.502
259.024, 144.741
260.391, 51.939
261.758, 7.926
263.125, 164.856
264.492, 353.873
265.858, 599.979
267.224, 700.175
268.590, 684.458
269.956, 631.826
271.321, 407.280
272.687, 332.639
274.052, 279.245
275.416, 217.831
276.781, 250.639
278.146, 328.394
279.510, 427.316
280.874, 558.396
282.237, 877.624
283.601, 1184.979
284.964, 1655.447
286.327, 2169.024
287.690, 2878.646
289.053, 4043.204
290.416, 5304.861
291.778, 6948.615
293.140, 9088.457
294.502, 11219.389
295.863, 13724.401
297.225, 15285.493
298.586, 15938.663
299.947, 15303.904
301.308, 13623.219
302.668, 11380.600
304.029, 9222.042
305.389, 7411.551
306.749, 5998.117
308.108, 4698.995
309.468, 3764.923
310.827, 3213.247
312.186, 2482.910
313.545, 2227.085
314.903, 1937.799
316.262, 1793.958
317.620, 1706.884
318.978, 1646.442
320.336, 1690.412
321.693, 1719.402
323.051, 1970.414
324.408, 2049.445
325.765, 2494.498
327.121, 2702.459
328.478, 3224.232
329.834, 3625.819
331.190, 4205.313
332.546, 4909.826
333.902, 5705.360
335.257, 5996.912
336.612, 6750.486
337.967, 6752.949
339.322, 6833.342
340.677, 6184.335
342.031, 5445.974
343.385, 4672.627
344.739, 3670.292
346.093, 2882.971
347.446, 2202.663
348.799, 1533.366
350.153, 1032.079
351.505, 747.803
352.858, 433.535
354.210, 307.276
355.563, 129.027
356.915, 75.783
358.267, 56.463
359.618, 44.739
360.969, 24.045
362.321, 19.623
363.672, 274.276
365.022, 428.938
366.373, 793.606
367.723, 1283.282
369.073, 1878.966
370.423, 2508.655
371.773, 3326.351
373.122, 4076.052
374.471, 4317.758
375.821, 4129.469
377.169, 3253.185
378.518, 2279.881
379.866, 1568.486
381.215, 812.026
382.563, 296.571
383.910, 101.117
385.258, 161.348
386.605, 270.885
387.952, 379.522
389.299, 380.287
390.646, 517.181
391.992, 511.255
393.339, 443.676
394.685, 254.508
396.031, 192.771
397.376, 130.360
398.722, 83.839
400.067, 73.079
401.412, 274.349
402.757, 306.659
404.101, 382.002
405.446, 558.365
406.790, 789.746
408.134, 811.137
409.478, 950.534
410.821, 1041.938
412.165, 1086.354
413.508, 1196.788
414.851, 1103.667
416.193, 1280.307
417.536, 1502.682
418.878, 1587.438
420.220, 1992.484
421.562, 2606.238
422.904, 3426.826
424.245, 4509.319
425.586, 6480.827
426.927, 9445.475
428.268, 13938.159
429.609, 20356.859
430.949, 27362.598
432.289, 32076.385
433.629, 31475.186
434.969, 26200.023
436.309, 18771.910
437.648, 13635.829
438.987, 9603.792
440.326, 6940.764
441.665, 4983.749
443.003, 3655.742
444.342, 2664.746
445.680, 2018.745
447.018, 1532.736
448.355, 1098.719
449.693, 831.690
451.030, 589.653
452.367, 536.605
453.704, 371.546
455.041, 382.477
456.377, 281.396
457.713, 366.302
459.049, 378.196
460.385, 407.077
461.721, 627.944
463.056, 601.799
464.391, 530.639
465.726, 533.464
467.061, 378.274
468.395, 247.069
469.730, 157.887
471.064, 0.247
472.398, 16.334
473.731, 114.369
475.065, 94.388
476.398, 85.398
477.731, 11.417
479.064, 139.546
480.397, 415.475
481.729, 699.387
483.062, 1082.281
484.394, 1492.156
485.725, 1797.014
487.057, 1900.854
488.389, 1562.676
489.720, 1246.480
491.051, 1009.269
492.382, 779.042
493.712, 677.799
495.043, 617.540
496.373, 624.264
497.703, 571.973
499.032, 572.683
500.362, 707.417
501.691, 801.147
503.020, 968.860
504.349, 1197.556
505.678, 1286.233
507.007, 1551.895
508.335, 1754.538
509.663, 1963.164
510.991, 2179.773
512.319, 2356.364
513.646, 2449.709
514.973, 2588.493
516.300, 2570.962
517.627, 2543.184
518.954, 2568.898
520.280, 2382.205
521.607, 2342.631
522.933, 2349.524
524.259, 2321.956
525.584, 2433.370
526.910, 2570.768
528.235, 2716.148
529.560, 2874.511
530.885, 3097.855
532.209, 3566.184
533.534, 3718.493
534.858, 4104.786
536.182, 4563.059
537.506, 4676.316
538.829, 4930.555
540.152, 4790.775
541.476, 4894.980
542.799, 4558.167
544.121, 4510.700
545.444, 3943.494
546.766, 3808.790
548.088, 3599.644
549.410, 3418.380
550.732, 3206.458
552.053, 2930.816
553.375, 2886.336
554.696, 2755.220
556.017, 2834.692
557.337, 2837.805
558.658, 2852.222
559.978, 2997.280
561.298, 3013.144
562.618, 3214.715
563.938, 3472.762
565.257, 3694.743
566.576, 4187.326
567.895, 4713.237
569.214, 5045.861
570.533, 5884.020
571.851, 6848.897
573.170, 7771.538
574.488, 9048.250
575.805, 10664.437
577.123, 12522.521
578.440, 14749.168
579.758, 17131.156
581.075, 19861.955
582.391, 22602.021
583.708, 23928.707
585.024, 24477.139
586.341, 24471.209
587.657, 23124.805
588.972, 20977.668
590.288, 18330.916
591.603, 15937.522
592.918, 13364.152
594.233, 11113.615
595.548, 9460.083
596.863, 8154.888
598.177, 6955.746
599.491, 5879.886
600.805, 5233.366
602.119, 4616.187
603.432, 4103.325
604.746, 3705.622
606.059, 3365.737
607.372, 3100.838
608.685, 2823.923
609.997, 2656.991
611.309, 2612.046
612.621, 2568.085
613.933, 2319.109
615.245, 2308.118
616.557, 2251.110
617.868, 2275.086
619.179, 2325.047
620.490, 2374.992
621.801, 2448.923
623.111, 2385.838
624.421, 2599.737
625.731, 2566.623
627.041, 2837.328
628.351, 2760.949
629.660, 2929.616
630.970, 2940.327
632.279, 2992.279
633.588, 3273.384
634.896, 3205.995
636.205, 3490.919
637.513, 3578.050
638.821, 3904.777
640.129, 4001.489
641.437, 4248.187
642.744, 4593.868
644.051, 4891.534
645.358, 5221.185
646.665, 5628.822
647.972, 6149.441
649.278, 6763.049
650.584, 7324.639
651.890, 8021.216
653.196, 8721.776
654.502, 9712.322
655.807, 10502.854
657.113, 11613.371
658.418, 12327.873
659.722, 13521.360
661.027, 14441.831
662.331, 15128.286
663.636, 15421.729
664.940, 15584.156
666.244, 15376.567
667.547, 14512.966
668.851, 13754.347
670.154, 12434.715
671.457, 11542.067
672.760, 10186.404
674.062, 8972.736
675.365, 7956.066
676.667, 6760.422
677.969, 5990.805
679.271, 5164.210
680.572, 4490.625
681.874, 3855.025
683.175, 3429.413
684.476, 3063.786
685.777, 2709.145
687.077, 2355.489
688.378, 2146.820
689.678, 1846.137
690.978, 1689.440
692.278, 1586.729
693.577, 1324.005
694.877, 1194.267
696.176, 1163.515
697.475, 893.750
698.774, 847.972
700.072, 683.180
701.371, 753.389
702.669, 554.659
703.967, 520.018
705.265, 405.493
706.562, 415.083
707.860, 421.828
709.157, 277.724
710.454, 208.754
711.751, 341.871
713.047, 158.057
714.344, 199.299
715.640, 183.548
716.936, 134.803
718.232, 60.047
719.527, 147.273
720.823, 30.487
722.118, 61.678
723.413, 35.851
724.708, 3.002
726.002, 21.878
727.297, 64.803
728.591, 12.795
729.885, 76.827
731.179, 25.066
732.472, 17.064
733.766, 104.238
735.059, 92.502
736.352, 151.851
737.645, 171.314
738.937, 132.905
740.230, 184.603
741.522, 146.434
742.814, 99.378
744.106, 151.412
745.397, 189.562
746.689, 99.848
747.980, 148.224
749.271, 193.713
750.562, 130.341
751.853, 136.074
753.143, 9.914
754.433, 30.795
755.723, 20.728
757.013, 26.707
758.303, 29.268
759.592, 103.573
760.881, 267.151
762.170, 318.073
763.459, 473.009
764.748, 606.905
766.036, 638.294
767.325, 724.165
768.613, 664.139
769.901, 572.986
771.188, 558.820
772.476, 512.644
773.763, 296.455
775.050, 297.258
776.337, 262.366
777.624, 249.142
778.910, 303.907
780.196, 368.980
781.482, 422.819
782.768, 562.551
784.054, 665.280
785.339, 924.023
786.625, 1198.786
787.910, 1643.592
789.195, 1996.438
790.479, 2653.365
791.764, 2951.266
793.048, 3194.164
794.332, 3030.052
795.616, 2662.930
796.900, 2216.798
798.183, 1832.655
799.467, 1431.503
800.750, 1041.341
802.033, 859.170
803.316, 720.989
804.598, 543.798
805.880, 570.599
807.163, 368.390
808.445, 360.171
809.726, 336.944
811.008, 256.708
812.289, 247.463
813.570, 377.210
814.851, 348.947
816.132, 362.676
817.413, 428.396
818.693, 302.108
819.973, 350.812
821.253, 430.508
822.533, 466.195
823.813, 534.875
825.092, 565.546
826.371, 740.210
827.650, 689.866
828.929, 868.515
830.208, 836.156
831.486, 941.789
832.764, 1147.414
834.042, 1076.032
835.320, 1135.642
836.598, 1250.243
837.875, 1220.837
839.152, 1447.424
840.429, 1476.003
841.706, 1445.574
842.983, 1643.139
844.259, 1641.696
845.536, 1670.247
846.812, 1905.791
848.088, 1950.328
849.363, 2063.858
850.639, 2088.390
851.914, 2216.942
853.189, 2235.495
854.464, 2054.054
855.739, 2150.607
857.013, 2069.158
858.288, 2088.712
859.562, 1884.259
860.836, 1683.812
862.110, 1659.364
863.383, 1471.913
864.656, 1307.460
865.930, 1298.016
867.203, 1069.566
868.475, 1076.129
869.748, 1080.682
871.020, 881.191
872.292, 776.208
873.564, 765.745
874.836, 751.335
876.108, 713.326
877.379, 651.988
878.650, 581.926
879.922, 545.332
881.192, 588.010
882.463, 519.921
883.733, 489.776
885.004, 486.178
886.274, 450.729
887.544, 387.773
888.813, 422.523
890.083, 371.521
891.352, 240.272
892.621, 297.412
893.890, 330.291
895.159, 184.552
896.427, 270.757
897.695, 241.688
898.964, 247.223
900.232, 238.394
901.499, 230.532
902.767, 158.823
904.034, 74.102
905.301, 205.035
906.568, 7.908
907.835, 34.488
909.102, 119.728
910.368, 4.616
911.634, 106.180
912.900, 26.575
914.166, 45.140
915.432, 0.291
916.697, 53.285
917.962, 31.136
919.227, 20.445
920.492, 8.968
921.757, 20.625
923.021, 24.224
924.285, 6.814
925.550, 8.970
926.813, 4.058
928.077, 22.319
929.341, 26.318
930.604, 10.961
931.867, 22.389
933.130, 7.737
934.393, 54.921
935.655, 30.587
936.918, 80.258
938.180, 60.936
939.442, 85.621
940.703, 61.312
941.965, 2.991
943.226, 123.712
944.488, 97.420
945.749, 62.134
947.009, 120.854
948.270, 174.578
949.530, 97.307
950.791, 88.042
952.051, 64.784
953.311, 78.531
954.570, 58.286
955.830, 97.047
957.089, 123.814
958.348, 50.587
959.607, 201.365
960.866, 120.149
962.124, 180.940
963.383, 133.737
964.641, 168.541
965.899, 213.350
967.156, 258.479
968.414, 382.984
969.671, 433.812
970.928, 576.646
972.185, 713.484
973.442, 560.329
974.699, 595.180
975.955, 502.037
977.211, 347.900
978.468, 402.769
979.723, 329.645
980.979, 379.527
982.234, 353.418
983.490, 389.313
984.745, 459.216
986.000, 259.125
987.254, 377.040
988.509, 402.960
989.763, 384.887
991.017, 550.861
992.271, 498.802
993.525, 529.838
994.779, 542.789
996.032, 640.813
997.285, 635.925
998.538, 777.982
999.791, 824.975
1001.044, 909.458
1002.296, 1183.985
1003.548, 1207.566
1004.800, 1424.341
1006.052, 1637.655
1007.304, 1872.076
1008.555, 1908.585
1009.807, 1920.871
1011.058, 1726.917
1012.309, 1736.604
1013.559, 1451.233
1014.810, 1263.702
1016.060, 1152.373
1017.310, 1088.535
1018.560, 1047.710
1019.810, 1084.099
1021.060, 1019.874
1022.309, 1029.952
1023.558, 1113.386
1024.807, 1103.779
1026.056, 1290.072
1027.305, 1223.983
1028.553, 1372.313
1029.801, 1380.725
1031.049, 1582.197
1032.297, 1595.363
1033.545, 1664.752
1034.793, 1756.521
1036.040, 2094.883
1037.287, 2313.166
1038.534, 2452.900
1039.781, 2639.585
1041.027, 2987.257
1042.274, 3282.762
1043.520, 3557.799
1044.766, 4145.818
1046.012, 4662.871
1047.257, 5347.721
1048.503, 6124.092
1049.748, 7202.224
1050.993, 8876.559
1052.238, 10512.922
1053.483, 13115.205
1054.727, 16610.463
1055.971, 21121.689
1057.216, 27009.984
1058.459, 34924.977
1059.703, 42194.375
1060.947, 47148.820
1062.190, 47672.223
1063.433, 43540.559
1064.676, 36511.758
1065.919, 28852.049
1067.162, 22205.297
1068.404, 17129.117
1069.646, 13482.777
1070.888, 10284.108
1072.130, 8375.797
1073.372, 6736.959
1074.613, 5442.371
1075.855, 4556.920
1077.096, 3747.072
1078.337, 3042.693
1079.578, 2714.112
1080.818, 2348.263
1082.059, 1978.462
1083.299, 1748.932
1084.539, 1645.409
1085.779, 1430.545
1087.018, 1260.040
1088.258, 1108.415
1089.497, 1093.765
1090.736, 973.241
1091.975, 875.730
1093.213, 828.913
1094.452, 652.276
1095.690, 669.535
1096.928, 706.655
1098.166, 528.870
1099.404, 613.041
1100.642, 623.519
1101.879, 636.880
1103.116, 702.299
1104.353, 762.935
1105.590, 840.286
1106.827, 898.573
1108.063, 1054.791
1109.299, 1281.887
1110.536, 1660.237
1111.771, 2084.506
1113.007, 2742.078
1114.243, 3544.134
1115.478, 4239.181
1116.713, 4373.502
1117.948, 3893.061
1119.183, 3133.087
1120.418, 2473.115
1121.652, 1740.326
1122.886, 1463.485
1124.120, 1201.644
1125.354, 882.790
1126.588, 658.990
1127.821, 463.421
1129.055, 418.706
1130.288, 229.037
1131.521, 301.279
1132.753, 190.423
1133.986, 182.601
1135.218, 146.531
1136.450, 126.699
1137.682, 208.750
1138.914, 42.748
1140.146, 148.316
1141.377, 35.169
1142.609, 73.012
1143.840, 44.468
1145.071, 27.288
1146.301, 43.891
1147.532, 62.881
1148.762, 20.908
1149.992, 102.079
1151.222, 21.348
1152.452, 40.767
1153.682, 8.233
1154.911, 5.040
1156.140, 34.396
1157.369, 18.688
1158.598, 41.517
1159.827, 18.645
1161.055, 17.059
1162.284, 13.494
1163.512, 64.688
1164.740, 6.646
1165.967, 71.328
1167.195, 18.387
1168.422, 63.701
1169.650, 133.930
1170.877, 16.610
1172.103, 29.354
1173.330, 36.875
1174.557, 46.051
1175.783, 59.461
1177.009, 36.253
1178.235, 4.277
1179.461, 14.504
1180.686, 75.917
1181.912, 14.471
1183.137, 31.146
1184.362, 124.783
1185.587, 27.106
1186.811, 60.024
1188.036, 78.449
1189.260, 141.757
1190.484, 24.762
1191.708, 44.311
1192.932, 52.033
1194.155, 111.368
1195.378, 23.358
1196.602, 6.261
1197.825, 37.051
1199.047, 43.864
1200.270, 79.740
1201.492, 99.049
1202.715, 12.070
1203.937, 109.229
1205.159, 0.146
1206.380, 11.401
1207.602, 87.401
1208.823, 104.857
1210.044, 121.576
1211.265, 152.842
1212.486, 128.784
1213.707, 146.674
1214.927, 129.028
1216.147, 51.384
1217.367, 102.971
1218.587, 50.269
1219.807, 238.657
1221.027, 114.024
1222.246, 82.165
1223.465, 185.385
1224.684, 8.188
1225.903, 115.925
1227.121, 184.875
1228.340, 92.787
1229.558, 81.499
1230.776, 103.178
1231.994, 185.329
1233.212, 100.074
1234.429, 129.255
1235.646, 136.242
1236.864, 106.093
1238.081, 95.743
1239.297, 182.818
1240.514, 139.516
1241.730, 167.604
1242.947, 202.193
1244.163, 181.881
1245.378, 192.628
1246.594, 118.711
1247.810, 126.832
1249.025, 125.958
1250.240, 109.905
1251.455, 149.145
1252.670, 165.048
1253.885, 181.879
1255.099, 211.305
1256.313, 149.451
1257.527, 171.220
1258.741, 98.172
1259.955, 253.447
1261.168, 256.349
1262.382, 157.077
1263.595, 99.400
1264.808, 263.755
1266.021, 223.582
1267.233, 179.783
1268.446, 190.251
1269.658, 190.911
1270.870, 192.735
1272.082, 179.312
1273.294, 122.540
1274.505, 155.938
1275.716, 143.563
1276.928, 162.938
1278.139, 184.584
1279.349, 174.852
1280.560, 236.205
1281.770, 177.467
1282.981, 203.562
1284.191, 215.498
1285.401, 92.458
1286.610, 249.168
1287.820, 267.747
1289.029, 104.875
1290.239, 295.620
1291.448, 85.298
1292.656, 201.725
1293.865, 146.280
1295.073, 230.297
1296.282, 230.991
1297.490, 66.047
1298.698, 147.478
1299.906, 191.215
1301.113, 295.788
1302.320, 109.465
1303.528, 174.112
1304.735, 143.212
1305.942, 203.350
1307.148, 199.618
1308.355, 133.891
1309.561, 79.284
1310.767, 49.753
1311.973, 112.151
1313.179, 77.277
1314.384, 108.946
1315.590, 92.263
1316.795, 82.425
1318.000, 1.677
1319.205, 62.268
1320.410, 92.532
1321.614, 1.363
1322.819, 35.114
1324.023, 45.680
1325.227, 79.731
1326.431, 61.303
1327.634, 78.471
1328.838, 26.147
1330.041, 12.696
1331.244, 64.225
1332.447, 56.333
1333.650, 67.402
1334.852, 115.636
1336.055, 12.184
1337.257, 27.488
1338.459, 50.439
1339.661, 90.250
1340.862, 103.120
1342.064, 119.035
1343.265, 105.314
1344.466, 83.554
1345.667, 35.874
1346.868, 58.197
1348.068, 40.539
1349.269, 105.766
1350.469, 111.253
1351.669, 41.290
1352.869, 112.214
1354.069, 43.137
1355.268, 111.059
1356.468, 64.039
1357.667, 36.056
1358.866, 92.857
1360.065, 84.685
1361.263, 51.922
1362.462, 84.212
1363.660, 68.294
1364.858, 66.338
1366.056, 91.067
1367.254, 74.097
1368.451, 46.451
1369.649, 73.331
1370.846, 90.964
1372.043, 90.310
1373.240, 128.035
1374.436, 125.487
1375.633, 44.938
1376.829, 88.582
1378.025, 35.752
1379.221, 47.028
1380.417, 57.114
1381.613, 8.135
1382.808, 0.627
1384.003, 63.396
1385.199, 0.388
1386.393, 69.935
1387.588, 10.858
1388.783, 46.277
1389.977, 155.691
1391.171, 19.069
1392.365, 99.918
1393.559, 36.455
1394.753, 88.036
1395.946, 25.412
1397.140, 27.326
1398.333, 54.197
1399.526, 83.572
1400.719, 2.163
1401.911, 110.231
1403.104, 55.820
1404.296, 106.146
1405.488, 20.918
1406.680, 42.052
1407.872, 231.418
1409.063, 88.696
1410.255, 42.489
1411.446, 155.690
1412.637, 14.321
1413.828, 69.968
1415.018, 29.387
1416.209, 97.268
1417.399, 126.993
1418.589, 74.204
1419.779, 111.813
1420.969, 138.354
1422.159, 88.625
1423.348, 15.328
1424.537, 86.894
1425.726, 115.951
1426.915, 19.253
1428.104, 97.474
1429.293, 155.982
1430.481, 14.449
1431.669, 1.134
1432.857, 90.789
1434.045, 77.872
1435.233, 139.736
1436.420, 113.283
1437.608, 116.135
1438.795, 172.180
1439.982, 69.171
1441.169, 154.427
1442.355, 21.749
1443.542, 189.423
1444.728, 127.964
1445.914, 177.855
1447.100, 116.030
1448.286, 216.070
1449.472, 155.646
1450.657, 193.873
1451.842, 92.147
1453.027, 220.297
1454.212, 195.368
1455.397, 184.092
1456.581, 229.656
1457.766, 195.847
1458.950, 103.861
1460.134, 200.655
1461.318, 192.625
1462.501, 248.461
1463.685, 146.583
1464.868, 132.150
1466.051, 199.406
1467.234, 100.178
1468.417, 247.011
1469.600, 142.285
1470.782, 104.737
1471.965, 260.383
1473.147, 157.450
1474.329, 35.984
1475.510, 172.027
1476.692, 228.129
1477.873, 24.964
1479.055, 125.480
1480.236, 46.871
1481.416, 191.499
1482.597, 250.882
1483.778, 147.605
1484.958, 151.677
1486.138, 177.379
1487.318, 153.376
1488.498, 123.135
1489.678, 216.317
1490.857, 212.506
1492.037, 100.392
1493.216, 111.311
1494.395, 195.540
1495.574, 138.139
1496.752, 171.660
1497.931, 126.217
1499.109, 38.848
1500.287, 164.336
1501.465, 43.729
1502.643, 133.030
1503.820, 17.599
1504.998, 173.759
1506.175, 102.066
1507.352, 83.282
1508.529, 170.364
1509.706, 98.478
1510.882, 17.580
1512.059, 71.187
1513.235, 142.080
1514.411, 135.034
1515.587, 98.498
1516.762, 43.181
1517.938, 123.699
1519.113, 32.654
1520.288, 0.128
1521.463, 14.716
1522.638, 0.000
##END=



