##NAMES=Fluorapophyllite-(K)
##RRUFFID=R050084
##IDEAL CHEMISTRY=KCa_4_Si_8_O_20_F&#183;8H_2_O
##LOCALITY=near Ahmednagar, Maharashtra, India
##OWNER=RRUFF
##SOURCE=Rock Currier
##DESCRIPTION=Greenish-white prismatic single crystal associated with scolecite
##STATUS=The identification of this mineral has been confirmed by X-ray diffraction and chemical analysis
##URL=rruff.info/R050084
##MEASURED CHEMISTRY=(K_0.98_Na_0.02_)Ca_4.00_Si_8.00_O_20_F_1.00_Â·8H_2_O
129.6975, 0.0000000E+00
130.1796, 51.84912
130.6617, 151.0128
131.1439, 265.0638
131.6260, 382.8793
132.1081, 496.7251
132.5902, 583.4973
133.0723, 645.5740
133.5544, 683.1149
134.0366, 688.7372
134.5187, 667.9574
135.0008, 626.3490
135.4829, 571.3190
135.9650, 538.0218
136.4471, 508.6677
136.9293, 429.1481
137.4114, 349.0985
137.8935, 282.1763
138.3756, 227.0549
138.8577, 179.8523
139.3398, 138.3828
139.8220, 102.6463
140.3041, 68.11230
140.7862, 30.40759
141.2683, 2.417236
141.7504, 29.61804
142.2325, 49.49457
142.7147, 57.35980
143.1968, 48.75568
143.6789, 22.85327
144.1610, 7.725647
144.6431, 35.98114
145.1252, 73.80157
145.6074, 130.2510
146.0895, 204.1744
146.5716, 286.4397
147.0537, 371.6252
147.5358, 459.5865
148.0179, 544.5038
148.5001, 626.8242
148.9822, 705.7722
149.4643, 780.3502
149.9464, 851.0858
150.4285, 920.9187
150.9106, 999.2163
151.3928, 1081.153
151.8749, 1132.667
152.3570, 1136.079
152.8391, 1117.625
153.3212, 1095.192
153.8033, 1069.614
154.2855, 1050.730
154.7676, 1045.628
155.2497, 1054.188
155.7318, 1075.680
156.2139, 1111.825
156.6960, 1160.095
157.1782, 1216.778
157.6603, 1280.978
158.1424, 1357.722
158.6245, 1458.122
159.1066, 1574.657
159.5887, 1690.477
160.0709, 1818.913
160.5530, 1937.634
161.0351, 2015.225
161.5172, 2050.376
161.9993, 2044.781
162.4814, 1986.142
162.9636, 1888.606
163.4457, 1768.407
163.9278, 1616.911
164.4099, 1450.321
164.8920, 1298.475
165.3741, 1163.219
165.8563, 1038.810
166.3384, 920.0216
166.8205, 809.0031
167.3026, 711.2036
167.7847, 630.1379
168.2668, 562.9048
168.7490, 502.0000
169.2311, 444.4266
169.7132, 400.4756
170.1953, 378.2219
170.6774, 371.1593
171.1595, 370.6548
171.6417, 374.5887
172.1238, 381.8109
172.6059, 388.5302
173.0880, 391.6040
173.5701, 401.0651
174.0522, 420.7070
174.5344, 448.7783
175.0165, 483.3145
175.4986, 524.5485
175.9807, 571.0422
176.4628, 618.1876
176.9449, 661.0295
177.4271, 714.8538
177.9092, 781.6534
178.3913, 861.6453
178.8734, 954.8052
179.3555, 1061.245
179.8376, 1182.087
180.3197, 1322.228
180.8019, 1485.466
181.2840, 1663.568
181.7661, 1856.520
182.2482, 2059.342
182.7303, 2269.784
183.2124, 2493.185
183.6946, 2713.650
184.1767, 2888.350
184.6588, 3020.224
185.1409, 3091.085
185.6230, 3101.862
186.1051, 3059.520
186.5873, 2967.184
187.0694, 2822.268
187.5515, 2638.375
188.0336, 2446.785
188.5157, 2230.746
188.9978, 2042.245
189.4800, 1891.201
189.9621, 1769.601
190.4442, 1668.165
190.9263, 1583.893
191.4084, 1517.287
191.8905, 1469.769
192.3727, 1440.744
192.8548, 1434.224
193.3369, 1458.392
193.8190, 1496.714
194.3011, 1532.521
194.7832, 1559.607
195.2654, 1586.955
195.7475, 1635.265
196.2296, 1718.861
196.7117, 1796.855
197.1938, 1856.770
197.6759, 1912.231
198.1581, 1976.105
198.6402, 2053.406
199.1223, 2137.740
199.6044, 2216.286
200.0865, 2281.108
200.5686, 2359.792
201.0508, 2452.910
201.5329, 2561.419
202.0150, 2685.114
202.4971, 2823.208
202.9792, 2972.426
203.4613, 3125.592
203.9435, 3271.651
204.4256, 3448.345
204.9077, 3670.233
205.3898, 3909.191
205.8719, 4151.021
206.3540, 4391.053
206.8362, 4627.503
207.3183, 4865.489
207.8004, 5122.287
208.2825, 5328.290
208.7646, 5496.948
209.2467, 5612.886
209.7289, 5665.299
210.2110, 5652.805
210.6931, 5580.358
211.1752, 5446.181
211.6573, 5235.620
212.1395, 5018.067
212.6216, 4793.545
213.1037, 4563.898
213.5858, 4325.663
214.0679, 4082.548
214.5500, 3843.153
215.0322, 3612.383
215.5143, 3386.834
215.9964, 3198.610
216.4785, 3064.230
216.9606, 2950.263
217.4427, 2846.445
217.9249, 2752.466
218.4070, 2671.786
218.8891, 2608.344
219.3712, 2562.502
219.8533, 2520.958
220.3354, 2481.843
220.8176, 2449.292
221.2997, 2427.676
221.7818, 2413.635
222.2639, 2399.887
222.7460, 2380.338
223.2281, 2356.466
223.7103, 2345.898
224.1924, 2355.104
224.6745, 2372.284
225.1566, 2406.651
225.6387, 2445.200
226.1208, 2469.404
226.6030, 2468.006
227.0851, 2445.394
227.5672, 2420.852
228.0493, 2407.922
228.5314, 2372.225
229.0135, 2300.304
229.4957, 2207.285
229.9778, 2109.486
230.4599, 2014.172
230.9420, 1919.045
231.4241, 1817.363
231.9062, 1706.637
232.3884, 1593.553
232.8705, 1479.587
233.3526, 1364.173
233.8347, 1242.547
234.3168, 1114.133
234.7989, 987.0056
235.2811, 874.8973
235.7632, 776.8865
236.2453, 697.0234
236.7274, 648.4228
237.2095, 606.0168
237.6916, 551.0365
238.1738, 480.8734
238.6559, 408.0903
239.1380, 347.6037
239.6201, 301.2346
240.1022, 260.4769
240.5843, 227.2157
241.0665, 197.7506
241.5486, 170.8297
242.0307, 146.1177
242.5128, 123.6349
242.9949, 103.9091
243.4770, 87.18787
243.9592, 69.85602
244.4413, 51.06348
244.9234, 32.24475
245.4055, 13.30371
245.8876, 5.328125
246.3697, 22.66479
246.8519, 38.29865
247.3340, 52.24146
247.8161, 63.70630
248.2982, 73.14081
248.7803, 79.09363
249.2624, 81.02155
249.7446, 79.61511
250.2267, 75.44635
250.7088, 67.78479
251.1909, 58.67291
251.6730, 54.46472
252.1551, 57.79547
252.6373, 60.74097
253.1194, 64.24139
253.6015, 64.77087
254.0836, 56.72382
254.5657, 36.65491
255.0478, 12.79358
255.5300, 0.2620240
256.0121, 1.392761
256.4942, 0.9190060
256.9763, 16.49158
257.4584, 35.85321
257.9406, 51.70105
258.4227, 62.35522
258.9048, 73.72882
259.3869, 92.55011
259.8690, 119.1384
260.3511, 146.7850
260.8333, 176.6032
261.3154, 205.2108
261.7975, 228.8569
262.2796, 247.8867
262.7617, 268.7620
263.2438, 296.9094
263.7260, 331.3408
264.2081, 366.9395
264.6902, 406.9401
265.1723, 441.8476
265.6544, 466.1970
266.1365, 480.9501
266.6187, 487.9151
267.1008, 485.6332
267.5829, 476.5696
268.0650, 466.6202
268.5471, 457.2249
269.0292, 442.7742
269.5114, 416.4462
269.9935, 382.6792
270.4756, 347.7913
270.9577, 312.6655
271.4398, 277.7007
271.9219, 240.8261
272.4041, 201.7095
272.8862, 171.0971
273.3683, 159.3922
273.8504, 157.5742
274.3325, 147.1976
274.8146, 122.4354
275.2968, 98.13531
275.7789, 83.75482
276.2610, 78.08636
276.7431, 76.20013
277.2252, 76.60620
277.7073, 79.92450
278.1895, 87.64313
278.6716, 100.3527
279.1537, 113.3461
279.6358, 122.6199
280.1179, 131.5915
280.6000, 146.6387
281.0822, 169.6066
281.5643, 196.0659
282.0464, 220.0448
282.5285, 240.6643
283.0106, 268.5539
283.4927, 311.9861
283.9749, 358.7078
284.4570, 395.5209
284.9391, 422.2673
285.4212, 451.7739
285.9033, 495.5306
286.3854, 553.2366
286.8676, 604.4466
287.3497, 643.4147
287.8318, 682.1505
288.3139, 725.7615
288.7960, 773.9221
289.2781, 823.6528
289.7603, 872.5410
290.2424, 923.0282
290.7245, 985.0280
291.2066, 1065.113
291.6887, 1147.711
292.1708, 1234.810
292.6530, 1321.675
293.1351, 1403.354
293.6172, 1478.028
294.0993, 1545.491
294.5814, 1604.504
295.0635, 1649.986
295.5457, 1696.299
296.0278, 1753.789
296.5099, 1804.558
296.9920, 1836.638
297.4741, 1848.225
297.9562, 1843.594
298.4384, 1827.779
298.9205, 1802.101
299.4026, 1754.371
299.8847, 1670.150
300.3668, 1579.155
300.8489, 1487.580
301.3311, 1396.716
301.8131, 1307.136
302.2953, 1218.894
302.7774, 1132.366
303.2595, 1049.288
303.7416, 968.0432
304.2237, 891.6144
304.7058, 820.3933
305.1880, 753.8911
305.6701, 691.7933
306.1522, 634.0739
306.6343, 580.6136
307.1164, 531.3932
307.5985, 487.3248
308.0807, 445.9570
308.5628, 406.4453
309.0449, 370.4951
309.5270, 339.7059
310.0091, 313.5034
310.4912, 290.1852
310.9734, 268.6115
311.4555, 248.8856
311.9376, 231.4371
312.4197, 219.0680
312.9018, 207.0026
313.3839, 188.6561
313.8661, 166.4221
314.3482, 149.2679
314.8303, 143.5128
315.3124, 144.1053
315.7945, 142.1174
316.2766, 136.7595
316.7588, 133.5125
317.2409, 136.6359
317.7230, 143.4533
318.2051, 149.5259
318.6872, 153.9900
319.1693, 158.2251
319.6515, 162.6853
320.1336, 167.5856
320.6157, 173.9650
321.0978, 182.1766
321.5799, 191.9810
322.0620, 202.4520
322.5442, 212.5949
323.0263, 227.4602
323.5084, 254.4241
323.9905, 284.4511
324.4726, 304.5331
324.9547, 312.6263
325.4369, 318.0887
325.9190, 329.0750
326.4011, 346.4312
326.8832, 367.9972
327.3653, 398.0711
327.8474, 428.2297
328.3296, 451.8750
328.8117, 471.2779
329.2938, 493.9639
329.7759, 524.7635
330.2580, 561.4196
330.7401, 594.0674
331.2223, 621.9464
331.7044, 647.3444
332.1865, 667.0103
332.6686, 686.5527
333.1507, 714.0449
333.6328, 751.1901
334.1150, 789.9335
334.5971, 818.9517
335.0792, 837.3180
335.5613, 847.8859
336.0434, 847.8074
336.5255, 843.5834
337.0077, 837.7709
337.4898, 830.7103
337.9719, 822.1976
338.4540, 813.2391
338.9361, 802.9968
339.4182, 782.8599
339.9004, 747.6774
340.3825, 709.8278
340.8646, 673.5101
341.3467, 636.6962
341.8288, 596.3284
342.3109, 550.6450
342.7931, 503.3160
343.2752, 459.7703
343.7573, 420.3060
344.2394, 381.8055
344.7215, 342.0359
345.2036, 304.2820
345.6858, 270.7690
346.1679, 241.5555
346.6500, 215.5826
347.1321, 193.5464
347.6142, 174.2382
348.0963, 153.9119
348.5785, 131.6917
349.0606, 109.9051
349.5427, 89.21631
350.0248, 70.26288
350.5069, 55.70807
350.9890, 48.91016
351.4712, 44.32922
351.9533, 37.69232
352.4354, 29.27002
352.9175, 19.81891
353.3996, 8.218323
353.8817, 2.493286
354.3639, 2.785889
354.8460, 12.76263
355.3281, 24.90320
355.8102, 28.39142
356.2923, 26.68152
356.7744, 21.68823
357.2566, 14.34912
357.7387, 9.597290
358.2208, 13.80853
358.7029, 29.67816
359.1850, 39.42175
359.6671, 33.38611
360.1493, 31.63116
360.6314, 46.72955
361.1135, 73.03937
361.5956, 97.65924
362.0777, 113.0821
362.5598, 121.2894
363.0420, 128.9869
363.5241, 131.0984
364.0062, 141.5040
364.4883, 168.5179
364.9704, 199.3025
365.4525, 221.0768
365.9347, 231.9415
366.4168, 243.1403
366.8989, 269.8346
367.3810, 313.6359
367.8631, 348.6840
368.3452, 366.8120
368.8274, 384.6324
369.3095, 410.9194
369.7916, 443.5249
370.2737, 477.0453
370.7558, 510.2635
371.2379, 541.9152
371.7201, 571.1873
372.2022, 598.6994
372.6843, 617.7083
373.1664, 625.4858
373.6485, 621.9374
374.1306, 608.3275
374.6128, 583.6754
375.0949, 552.6017
375.5770, 517.3625
376.0591, 477.5982
376.5412, 430.5507
377.0233, 374.6836
377.5055, 319.0959
377.9876, 273.3234
378.4697, 238.7594
378.9518, 204.0424
379.4339, 165.5810
379.9160, 130.1939
380.3982, 103.2578
380.8803, 83.10352
381.3624, 64.97406
381.8445, 46.22116
382.3266, 27.92200
382.8087, 13.06525
383.2909, 4.745239
383.7730, 3.779510
384.2551, 13.52100
384.7372, 22.95389
385.2193, 30.82004
385.7014, 36.94977
386.1836, 42.28720
386.6657, 48.76089
387.1478, 56.77780
387.6299, 57.39435
388.1120, 43.12570
388.5941, 29.80978
389.0763, 21.89050
389.5584, 18.42456
390.0405, 18.49591
390.5226, 22.68784
391.0047, 27.32281
391.4868, 25.76294
391.9690, 17.25720
392.4511, 9.763977
392.9332, 6.006561
393.4153, 3.515228
393.8974, 0.5495000
394.3795, 2.976257
394.8617, 8.357269
395.3438, 17.78186
395.8259, 28.92963
396.3080, 37.86353
396.7901, 44.14871
397.2722, 49.69342
397.7544, 55.73688
398.2365, 62.11438
398.7186, 68.05682
399.2007, 74.75476
399.6828, 79.66919
400.1649, 79.55579
400.6471, 77.52304
401.1292, 79.00824
401.6113, 85.82892
402.0934, 95.55612
402.5755, 105.3136
403.0576, 117.2585
403.5398, 121.8343
404.0219, 108.6197
404.5040, 98.75568
404.9861, 106.1585
405.4682, 126.1792
405.9503, 145.7119
406.4325, 156.4976
406.9146, 160.6078
407.3967, 165.0016
407.8788, 169.6780
408.3609, 174.6519
408.8430, 179.4156
409.3252, 184.8006
409.8073, 191.5958
410.2894, 199.8852
410.7715, 208.9331
411.2536, 217.0020
411.7357, 224.8976
412.2179, 237.9471
412.7000, 258.7989
413.1821, 279.5177
413.6642, 291.0078
414.1463, 298.6652
414.6284, 313.6667
415.1106, 341.7711
415.5927, 373.0870
416.0748, 397.6066
416.5569, 419.1342
417.0390, 450.6644
417.5211, 497.6689
418.0033, 551.7632
418.4854, 599.9414
418.9675, 638.1625
419.4496, 683.9974
419.9317, 739.2463
420.4138, 800.7886
420.8960, 869.7153
421.3781, 943.6929
421.8602, 1016.167
422.3423, 1082.734
422.8244, 1146.035
423.3065, 1216.401
423.7887, 1287.394
424.2708, 1377.533
424.7529, 1493.950
425.2350, 1624.758
425.7171, 1757.123
426.1992, 1891.175
426.6814, 2039.157
427.1635, 2217.536
427.6456, 2424.900
428.1277, 2627.349
428.6098, 2822.342
429.0919, 3016.830
429.5741, 3222.319
430.0562, 3428.750
430.5383, 3625.946
431.0204, 3828.940
431.5025, 3984.697
431.9846, 4055.976
432.4668, 4044.666
432.9489, 3950.422
433.4310, 3765.559
433.9131, 3522.735
434.3952, 3245.758
434.8773, 2930.627
435.3595, 2639.115
435.8416, 2381.977
436.3237, 2143.801
436.8058, 1909.985
437.2879, 1686.807
437.7701, 1489.024
438.2522, 1324.744
438.7343, 1187.934
439.2164, 1064.807
439.6985, 954.7716
440.1806, 860.6850
440.6628, 788.1499
441.1449, 724.0828
441.6270, 659.1061
442.1091, 593.7728
442.5912, 534.5143
443.0733, 487.3027
443.5555, 449.9203
444.0376, 414.0479
444.5197, 380.0432
445.0018, 348.0161
445.4839, 319.4478
445.9660, 293.6707
446.4482, 268.4848
446.9303, 242.9572
447.4124, 220.8450
447.8945, 204.6339
448.3766, 193.0742
448.8587, 184.8715
449.3409, 180.4068
449.8230, 177.6429
450.3051, 174.4694
450.7872, 170.9352
451.2693, 169.4331
451.7514, 171.0018
452.2336, 173.3200
452.7157, 176.0048
453.1978, 178.8185
453.6799, 180.8168
454.1620, 181.8508
454.6441, 183.7056
455.1263, 188.8801
455.6084, 197.8772
456.0905, 207.2340
456.5726, 215.4697
457.0547, 225.5902
457.5368, 239.9856
458.0190, 256.5123
458.5011, 271.2451
458.9832, 282.1036
459.4653, 292.9335
459.9474, 312.3157
460.4295, 340.4392
460.9117, 358.6906
461.3938, 360.8381
461.8759, 355.5010
462.3580, 348.7049
462.8401, 340.8505
463.3222, 334.1201
463.8044, 334.3174
464.2865, 331.7667
464.7686, 315.9304
465.2507, 289.2995
465.7328, 261.2028
466.2149, 235.0269
466.6971, 211.9281
467.1792, 194.9586
467.6613, 189.0801
468.1434, 178.8509
468.6255, 160.4548
469.1076, 141.0942
469.5898, 126.9014
470.0719, 115.8981
470.5540, 100.3106
471.0361, 73.64392
471.5182, 43.14709
472.0003, 32.22455
472.4825, 50.77100
472.9646, 62.05377
473.4467, 51.95428
473.9288, 36.47778
474.4109, 24.28009
474.8930, 16.15924
475.3752, 10.64124
475.8573, 7.219788
476.3394, 5.729614
476.8215, 5.848999
477.3036, 7.572937
477.7857, 11.26575
478.2679, 17.38336
478.7500, 25.36383
479.2321, 34.07330
479.7142, 43.52264
480.1963, 53.32489
480.6784, 63.93127
481.1606, 74.50427
481.6427, 83.91504
482.1248, 92.38806
482.6069, 101.6172
483.0890, 113.3652
483.5711, 126.4886
484.0533, 134.9103
484.5354, 137.7187
485.0175, 136.9219
485.4996, 130.1975
485.9817, 122.3246
486.4638, 118.2829
486.9460, 117.9366
487.4281, 115.6210
487.9102, 105.2424
488.3923, 89.56616
488.8744, 77.92566
489.3565, 71.51263
489.8387, 62.44263
490.3208, 44.46375
490.8029, 22.51971
491.2850, 6.849670
491.7671, 1.388062
492.2492, 7.013611
492.7314, 9.830078
493.2135, 11.82520
493.6956, 15.14545
494.1777, 20.00940
494.6598, 26.02533
495.1419, 33.36694
495.6241, 41.28308
496.1062, 44.98541
496.5883, 42.64520
497.0704, 38.29095
497.5525, 29.22101
498.0346, 20.49457
498.5168, 17.57831
498.9989, 20.23053
499.4810, 22.46051
499.9631, 19.54034
500.4452, 12.22925
500.9273, 2.785461
501.4095, 9.566772
501.8916, 20.95447
502.3737, 30.38696
502.8558, 37.38782
503.3379, 41.29462
503.8200, 41.59454
504.3022, 40.79218
504.7843, 36.99457
505.2664, 34.19232
505.7485, 38.09857
506.2306, 48.39880
506.7127, 59.68982
507.1949, 68.51257
507.6770, 75.34674
508.1591, 82.09290
508.6412, 86.76068
509.1233, 94.49695
509.6054, 108.9047
510.0876, 123.7542
510.5697, 136.0526
511.0518, 144.6180
511.5339, 147.4806
512.0161, 140.8658
512.4982, 129.0409
512.9803, 123.9893
513.4624, 126.6250
513.9445, 130.7343
514.4266, 134.5172
514.9088, 138.5178
515.3909, 144.9442
515.8730, 154.4843
516.3551, 158.1510
516.8372, 148.8447
517.3193, 135.7499
517.8015, 126.5831
518.2836, 121.4100
518.7657, 118.2877
519.2478, 116.5380
519.7299, 114.7065
520.2120, 108.4805
520.6942, 89.17493
521.1763, 82.47211
521.6584, 97.82489
522.1405, 115.3472
522.6226, 127.5312
523.1047, 132.9876
523.5869, 129.4234
524.0690, 112.2767
524.5511, 93.08038
525.0332, 93.38287
525.5153, 113.0406
525.9974, 128.7581
526.4796, 133.7049
526.9617, 135.2371
527.4438, 140.8228
527.9259, 149.9986
528.4080, 159.3206
528.8901, 169.8449
529.3723, 178.8940
529.8544, 181.3364
530.3365, 181.9108
530.8186, 191.4142
531.3007, 213.2811
531.7828, 236.9124
532.2650, 246.3001
532.7471, 237.9806
533.2292, 237.0963
533.7113, 251.7670
534.1934, 264.9972
534.6755, 268.9402
535.1577, 269.5928
535.6398, 276.8656
536.1219, 294.5343
536.6040, 310.7244
537.0861, 311.9020
537.5682, 302.4265
538.0504, 297.8919
538.5325, 301.1004
539.0146, 301.2470
539.4967, 288.3019
539.9788, 266.1304
540.4609, 254.2950
540.9431, 264.5865
541.4252, 267.7655
541.9073, 253.2607
542.3894, 232.0724
542.8715, 213.1768
543.3536, 198.2664
543.8358, 186.0804
544.3179, 175.7260
544.8000, 167.1296
545.2821, 159.9602
545.7642, 154.1703
546.2463, 150.0386
546.7285, 152.4924
547.2106, 152.9012
547.6927, 140.2423
548.1748, 116.1508
548.6569, 100.6099
549.1390, 109.4112
549.6211, 125.5515
550.1032, 131.6265
550.5853, 128.8572
551.0674, 123.2238
551.5496, 116.8055
552.0317, 109.2916
552.5138, 99.51825
552.9959, 84.36383
553.4780, 77.74243
553.9601, 86.46637
554.4423, 96.06598
554.9244, 100.0805
555.4065, 101.3707
555.8886, 104.8676
556.3707, 112.2557
556.8528, 120.2440
557.3350, 123.5104
557.8171, 123.5248
558.2992, 130.9631
558.7813, 148.6987
559.2634, 167.7852
559.7455, 181.1711
560.2277, 190.9980
560.7098, 204.6288
561.1919, 226.2690
561.6740, 244.5576
562.1561, 251.2361
562.6382, 255.6658
563.1204, 267.2577
563.6025, 287.0447
564.0846, 312.3887
564.5667, 342.3722
565.0488, 375.2047
565.5309, 403.3208
566.0131, 422.4948
566.4952, 447.5795
566.9773, 484.9272
567.4594, 526.2767
567.9415, 566.3844
568.4236, 605.8217
568.9058, 648.3076
569.3879, 696.3259
569.8700, 747.5162
570.3521, 800.7290
570.8342, 855.5035
571.3163, 909.2040
571.7985, 960.6301
572.2806, 1015.031
572.7627, 1079.036
573.2448, 1154.135
573.7269, 1226.927
574.2090, 1294.118
574.6912, 1364.038
575.1733, 1441.604
575.6554, 1521.437
576.1375, 1598.001
576.6196, 1670.141
577.1017, 1739.914
577.5839, 1806.844
578.0660, 1873.023
578.5481, 1946.837
579.0302, 2029.194
579.5123, 2111.445
579.9944, 2190.800
580.4766, 2266.449
580.9587, 2336.887
581.4408, 2404.287
581.9229, 2460.729
582.4050, 2511.562
582.8871, 2544.704
583.3693, 2546.178
583.8514, 2524.186
584.3335, 2498.212
584.8156, 2477.299
585.2977, 2450.072
585.7798, 2395.836
586.2620, 2312.543
586.7441, 2227.921
587.2262, 2146.369
587.7083, 2057.025
588.1904, 1945.503
588.6725, 1824.090
589.1547, 1712.587
589.6368, 1613.920
590.1189, 1523.112
590.6010, 1444.430
591.0831, 1368.398
591.5652, 1281.440
592.0474, 1184.177
592.5295, 1086.846
593.0116, 995.5762
593.4937, 912.0954
593.9758, 841.9079
594.4579, 792.7610
594.9401, 739.2850
595.4222, 673.0541
595.9043, 608.2675
596.3864, 551.0425
596.8685, 501.1940
597.3506, 457.7737
597.8328, 422.0822
598.3149, 389.8887
598.7970, 358.3010
599.2791, 327.0328
599.7612, 294.9188
600.2433, 261.5999
600.7255, 228.5391
601.2076, 196.3458
601.6897, 165.5046
602.1718, 139.9072
602.6539, 116.8264
603.1360, 103.4431
603.6182, 111.5119
604.1003, 120.4767
604.5824, 113.5170
605.0645, 92.32092
605.5466, 70.40259
606.0287, 55.47137
606.5109, 43.92603
606.9930, 28.34918
607.4751, 9.982178
607.9572, 0.2052000
608.4393, 3.387390
608.9214, 9.614685
609.4036, 9.125977
609.8857, 1.867798
610.3678, 5.034241
610.8499, 12.19727
611.3320, 18.22845
611.8141, 24.74097
612.2963, 28.77008
612.7784, 25.27991
613.2605, 15.22247
613.7426, 6.189514
614.2247, 4.199158
614.7068, 7.052002
615.1890, 10.24225
615.6711, 13.88885
616.1532, 15.29321
616.6353, 13.90259
617.1174, 9.563477
617.5995, 1.113281
618.0817, 11.57092
618.5638, 22.73517
619.0459, 32.32990
619.5280, 40.16638
620.0101, 45.79358
620.4922, 49.79816
620.9744, 52.48279
621.4565, 54.16058
621.9386, 55.68048
622.4207, 57.16986
622.9028, 59.38037
623.3849, 66.24274
623.8671, 78.89594
624.3492, 89.32208
624.8313, 93.58044
625.3134, 96.33606
625.7955, 103.7687
626.2776, 115.5674
626.7598, 125.5707
627.2419, 133.8428
627.7240, 139.1247
628.2061, 138.8345
628.6882, 135.8745
629.1703, 133.7006
629.6525, 133.4652
630.1346, 135.5642
630.6167, 140.3281
631.0988, 147.7936
631.5809, 158.7386
632.0630, 174.2610
632.5452, 189.4391
633.0273, 205.6384
633.5094, 218.0782
633.9915, 217.6508
634.4736, 205.3512
634.9557, 202.8383
635.4379, 221.1533
635.9200, 243.2117
636.4021, 262.6066
636.8842, 278.2881
637.3663, 287.3618
637.8484, 290.0901
638.3306, 292.9796
638.8127, 302.7519
639.2948, 318.2720
639.7769, 331.6497
640.2590, 341.0189
640.7411, 355.5258
641.2233, 383.6342
641.7054, 412.1835
642.1875, 423.4260
642.6696, 419.4485
643.1517, 427.0530
643.6339, 460.7284
644.1160, 497.7555
644.5981, 525.3382
645.0802, 548.3716
645.5623, 574.9788
646.0444, 606.6413
646.5266, 639.1135
647.0087, 668.2832
647.4908, 694.9946
647.9729, 722.8323
648.4550, 751.4875
648.9371, 783.0087
649.4193, 817.0447
649.9014, 854.2725
650.3835, 897.8359
650.8656, 946.7476
651.3477, 993.5082
651.8298, 1040.233
652.3120, 1080.563
652.7941, 1105.794
653.2762, 1126.040
653.7583, 1153.225
654.2404, 1189.686
654.7225, 1233.711
655.2047, 1286.003
655.6868, 1342.527
656.1689, 1387.950
656.6510, 1420.481
657.1331, 1452.000
657.6152, 1485.161
658.0974, 1516.411
658.5795, 1539.224
659.0616, 1557.400
659.5437, 1586.925
660.0258, 1646.825
660.5079, 1695.615
660.9901, 1720.356
661.4722, 1726.799
661.9543, 1711.637
662.4364, 1681.860
662.9185, 1662.821
663.4006, 1675.424
663.8828, 1698.372
664.3649, 1680.470
664.8470, 1619.765
665.3291, 1566.888
665.8112, 1531.228
666.2933, 1501.692
666.7755, 1471.947
667.2576, 1441.597
667.7397, 1409.236
668.2218, 1381.251
668.7039, 1341.225
669.1860, 1274.466
669.6682, 1203.745
670.1503, 1147.451
670.6324, 1103.286
671.1145, 1058.941
671.5966, 1007.477
672.0787, 954.8552
672.5609, 912.0828
673.0430, 877.1695
673.5251, 832.5580
674.0072, 773.5002
674.4893, 719.2548
674.9714, 682.2719
675.4536, 657.6960
675.9357, 633.5377
676.4178, 611.0264
676.8999, 586.0789
677.3820, 557.2546
677.8641, 527.2172
678.3463, 496.3572
678.8284, 465.6400
679.3105, 436.6618
679.7926, 409.9535
680.2747, 384.3449
680.7568, 357.9660
681.2390, 332.7460
681.7211, 314.5643
682.2032, 302.3649
682.6853, 287.4921
683.1674, 266.0393
683.6495, 242.5732
684.1317, 223.7606
684.6138, 210.2201
685.0959, 198.4733
685.5780, 189.6234
686.0601, 180.9792
686.5422, 173.0818
687.0244, 164.4648
687.5065, 152.3254
687.9886, 137.0442
688.4707, 124.8179
688.9528, 119.5194
689.4349, 117.3065
689.9171, 116.4294
690.3992, 115.8295
690.8813, 111.6915
691.3634, 103.0675
691.8455, 93.18658
692.3276, 85.13593
692.8098, 78.86328
693.2919, 74.21420
693.7740, 73.30295
694.2561, 69.26111
694.7382, 57.88904
695.2203, 45.57245
695.7025, 36.47055
696.1846, 30.07446
696.6667, 24.17157
697.1488, 17.88235
697.6309, 12.47382
698.1130, 7.698700
698.5952, 4.750458
699.0773, 5.693268
699.5594, 10.17258
700.0415, 16.62875
700.5236, 24.64658
701.0057, 31.17447
701.4879, 28.67294
701.9700, 16.61685
702.4521, 6.131073
702.9342, 2.509613
703.4163, 7.660217
703.8984, 7.071259
704.3806, 2.776154
704.8627, 0.6859130
705.3448, 4.264130
705.8269, 4.439362
706.3090, 4.080414
706.7911, 11.34647
707.2733, 9.127960
707.7554, 2.308990
708.2375, 1.2268000E-02
708.7196, 4.831635
709.2017, 10.54336
709.6838, 10.18829
710.1660, 6.506439
710.6481, 7.350647
711.1302, 12.46097
711.6123, 15.22247
712.0944, 12.86755
712.5765, 9.149506
713.0587, 8.953827
713.5408, 12.54462
714.0229, 14.05618
714.5050, 14.06870
714.9871, 11.03076
715.4692, 1.146088
715.9514, 11.84634
716.4335, 9.859192
716.9156, 2.384644
717.3977, 11.10010
717.8798, 8.361603
718.3619, 3.702820
718.8441, 5.822632
719.3262, 10.75656
719.8083, 11.11493
720.2904, 6.506744
720.7725, 2.354126
721.2546, 2.631592
721.7368, 4.301300
722.2189, 1.402496
722.7010, 16.42694
723.1831, 24.95859
723.6652, 23.34818
724.1473, 20.06024
724.6295, 20.03949
725.1116, 21.38199
725.5937, 19.64777
726.0758, 13.07010
726.5579, 9.658173
727.0400, 15.40408
727.5222, 20.08398
728.0043, 15.37424
728.4864, 6.285004
728.9685, 1.835297
729.4506, 4.131500
729.9327, 7.000000
730.4149, 3.351959
730.8970, 3.060059
731.3791, 2.862091
731.8612, 3.238861
732.3433, 8.828308
732.8254, 12.22540
733.3076, 13.40787
733.7897, 11.94925
734.2718, 8.131500
734.7539, 5.526154
735.2360, 3.719269
735.7181, 3.853271
736.2003, 6.724152
736.6824, 10.85510
737.1645, 18.56656
737.6466, 26.67612
738.1287, 25.80466
738.6108, 8.352264
739.0930, 5.842865
739.5751, 2.533905
740.0572, 7.904358
740.5393, 14.60611
741.0214, 17.09637
741.5035, 17.86877
741.9857, 18.06131
742.4678, 18.72006
742.9499, 22.44821
743.4320, 28.76349
743.9141, 30.96280
744.3962, 28.75137
744.8784, 22.75711
745.3605, 10.11646
745.8426, 1.596619
746.3247, 1.073730
746.8068, 13.37354
747.2889, 24.62262
747.7711, 31.42401
748.2532, 36.96149
748.7353, 39.93149
749.2174, 43.51678
749.6995, 52.14597
750.1816, 64.41519
750.6638, 73.45135
751.1459, 74.34604
751.6280, 74.01276
752.1101, 78.91959
752.5922, 87.10208
753.0743, 95.00342
753.5565, 102.2173
754.0386, 109.9367
754.5207, 118.9327
755.0028, 128.0381
755.4849, 134.4145
755.9670, 137.5048
756.4492, 142.7603
756.9313, 149.4785
757.4134, 160.8019
757.8955, 181.0504
758.3776, 204.5727
758.8597, 223.8976
759.3419, 239.3087
759.8240, 248.8379
760.3061, 244.0499
760.7882, 242.8840
761.2703, 256.5381
761.7524, 274.8127
762.2346, 286.6541
762.7167, 291.3529
763.1988, 295.3247
763.6809, 302.6281
764.1630, 309.1671
764.6451, 310.0898
765.1273, 307.7587
765.6094, 307.8353
766.0915, 310.2623
766.5736, 308.3654
767.0557, 297.5697
767.5378, 283.5644
768.0200, 279.8687
768.5021, 289.4295
768.9842, 288.7833
769.4663, 274.5967
769.9484, 257.3744
770.4305, 240.4160
770.9127, 223.4153
771.3948, 205.0869
771.8769, 185.1961
772.3590, 169.3979
772.8411, 159.1607
773.3232, 153.2725
773.8054, 153.6303
774.2875, 155.2494
774.7696, 151.8185
775.2517, 144.0636
775.7338, 139.1214
776.2159, 142.1747
776.6981, 145.8692
777.1802, 140.0542
777.6623, 129.5932
778.1444, 126.1120
778.6265, 130.2148
779.1086, 134.4464
779.5908, 134.5944
780.0729, 133.6733
780.5550, 137.1608
781.0371, 145.3504
781.5192, 149.7132
782.0013, 148.1053
782.4835, 148.2644
782.9656, 152.5799
783.4477, 160.5486
783.9298, 172.2446
784.4119, 187.7419
784.8940, 203.4973
785.3762, 218.9015
785.8583, 234.7780
786.3404, 253.4177
786.8225, 270.7485
787.3046, 283.7301
787.7867, 292.5724
788.2689, 298.0236
788.7510, 298.4164
789.2331, 301.9870
789.7152, 323.4607
790.1973, 348.6893
790.6794, 352.2494
791.1616, 336.9980
791.6437, 324.2729
792.1258, 323.1596
792.6079, 323.7023
793.0900, 311.3698
793.5721, 287.8351
794.0543, 269.1774
794.5364, 255.8521
795.0185, 244.7163
795.5006, 235.9666
795.9827, 226.5120
796.4648, 213.1750
796.9470, 195.7219
797.4291, 177.1442
797.9112, 156.2685
798.3933, 136.3786
798.8754, 118.2332
799.3575, 100.2478
799.8397, 77.38446
800.3218, 55.24930
800.8039, 45.07266
801.2860, 50.76349
801.7681, 59.06305
802.2502, 69.11627
802.7324, 73.67554
803.2145, 60.64694
803.6966, 38.50986
804.1787, 23.90659
804.6608, 21.34381
805.1429, 25.12222
805.6251, 32.64526
806.1072, 40.58734
806.5893, 40.13010
807.0714, 32.65976
807.5535, 29.86563
808.0356, 34.09818
808.5178, 35.62378
808.9999, 27.07709
809.4820, 13.34409
809.9641, 7.075226
810.4462, 10.31384
810.9283, 13.65018
811.4105, 18.02631
811.8926, 20.97751
812.3747, 20.69418
812.8568, 19.04227
813.3389, 17.84125
813.8210, 17.12668
814.3032, 17.31372
814.7853, 18.95853
815.2674, 20.88165
815.7495, 23.64365
816.2316, 25.75854
816.7137, 24.42044
817.1959, 21.24533
817.6780, 21.18579
818.1601, 26.59036
818.6422, 34.25366
819.1243, 43.13373
819.6064, 51.64856
820.0886, 57.21808
820.5707, 60.12906
821.0528, 61.61743
821.5349, 62.20309
822.0170, 62.38489
822.4991, 62.42053
822.9813, 62.67776
823.4634, 65.72415
823.9455, 71.89249
824.4276, 73.06924
824.9097, 65.56299
825.3918, 61.29724
825.8740, 70.85153
826.3561, 89.31912
826.8382, 99.85419
827.3203, 98.26706
827.8024, 98.46820
828.2845, 104.3992
828.7667, 107.2228
829.2488, 97.88260
829.7309, 87.26126
830.2130, 90.73227
830.6951, 108.9989
831.1772, 122.1570
831.6594, 120.1440
832.1415, 118.5987
832.6236, 124.9084
833.1057, 134.5443
833.5878, 144.5272
834.0699, 153.3999
834.5521, 159.1500
835.0342, 160.9102
835.5163, 159.2420
835.9984, 151.6912
836.4805, 142.6424
836.9626, 139.0504
837.4448, 140.6673
837.9269, 146.4256
838.4090, 155.5387
838.8911, 162.2130
839.3732, 158.9846
839.8553, 149.5421
840.3375, 148.0428
840.8196, 154.6087
841.3017, 163.5101
841.7838, 174.4570
842.2659, 184.2880
842.7480, 191.0794
843.2302, 195.0805
843.7123, 196.8970
844.1944, 196.2124
844.6765, 194.2331
845.1586, 188.6591
845.6407, 185.4721
846.1229, 189.1414
846.6050, 193.7382
847.0871, 193.7544
847.5692, 189.6187
848.0513, 186.3994
848.5334, 186.2342
849.0156, 185.0842
849.4977, 177.7639
849.9798, 172.7029
850.4619, 179.9805
850.9440, 193.9098
851.4261, 200.9801
851.9083, 196.7098
852.3904, 191.4984
852.8725, 194.4914
853.3546, 197.9926
853.8367, 193.7526
854.3188, 183.7050
854.8010, 169.8527
855.2831, 154.2293
855.7652, 144.4115
856.2473, 147.4107
856.7294, 155.1790
857.2115, 151.5634
857.6937, 139.9752
858.1758, 137.4538
858.6579, 145.1990
859.1400, 150.3336
859.6221, 147.0948
860.1042, 136.7371
860.5864, 118.8822
861.0685, 94.28021
861.5506, 82.84692
862.0327, 86.96255
862.5148, 91.56683
862.9969, 95.10275
863.4791, 96.52271
863.9612, 93.94534
864.4433, 88.37213
864.9254, 84.41238
865.4075, 84.80994
865.8896, 81.86630
866.3718, 71.76614
866.8539, 61.47885
867.3360, 51.91327
867.8181, 45.00452
868.3002, 45.48380
868.7823, 52.32797
869.2645, 54.81067
869.7466, 45.28610
870.2287, 37.34058
870.7108, 34.82138
871.1929, 36.99371
871.6750, 46.91339
872.1572, 59.95383
872.6393, 69.55084
873.1214, 73.80069
873.6035, 70.98813
874.0856, 52.79858
874.5677, 32.76651
875.0499, 28.97369
875.5320, 34.27963
876.0141, 31.84421
876.4962, 19.86752
876.9783, 10.25385
877.4604, 11.43149
877.9426, 18.30176
878.4247, 20.73810
878.9068, 20.29269
879.3889, 25.11243
879.8710, 35.02078
880.3531, 43.16782
880.8353, 46.66644
881.3174, 45.02994
881.7995, 35.11890
882.2816, 18.79037
882.7637, 13.22455
883.2458, 19.77036
883.7280, 24.00058
884.2101, 23.40091
884.6922, 22.17136
885.1743, 23.16064
885.6564, 25.07120
886.1385, 24.94565
886.6207, 22.69662
887.1028, 21.66489
887.5849, 21.74924
888.0670, 21.84549
888.5491, 19.95285
889.0313, 18.95465
889.5134, 23.04053
889.9955, 31.06656
890.4776, 36.13596
890.9597, 39.12158
891.4418, 36.70297
891.9240, 20.44687
892.4061, 7.347961
892.8882, 9.568329
893.3703, 18.64078
893.8524, 22.71344
894.3345, 20.42148
894.8167, 18.20288
895.2988, 21.28030
895.7809, 21.84454
896.2630, 9.267273
896.7451, 2.991425
897.2272, 3.671295
897.7094, 22.40610
898.1915, 31.61874
898.6736, 23.51675
899.1557, 14.72113
899.6378, 22.03741
900.1199, 33.17862
900.6021, 32.77835
901.0842, 24.41486
901.5663, 15.03799
902.0484, 6.562164
902.5305, 0.6383670
903.0126, 6.556671
903.4948, 9.475952
903.9769, 4.208466
904.4590, 5.762207
904.9411, 8.388123
905.4232, 4.206970
905.9053, 0.6649480
906.3875, 0.2240600
906.8696, 3.751221
907.3517, 13.33447
907.8338, 25.43323
908.3159, 27.44406
908.7980, 19.28690
909.2802, 12.62329
909.7623, 8.487091
910.2444, 7.334412
910.7265, 9.817566
911.2086, 14.17313
911.6907, 18.21405
912.1729, 21.90906
912.6550, 22.94183
913.1371, 19.80215
913.6192, 19.17767
914.1013, 24.37457
914.5834, 28.08630
915.0656, 24.43823
915.5477, 16.64999
916.0298, 11.97034
916.5119, 10.75308
916.9940, 11.46548
917.4761, 20.12143
917.9583, 22.16849
918.4404, 5.918152
918.9225, 11.00186
919.4046, 12.96310
919.8867, 3.803375
920.3688, 1.590698
920.8510, 0.1071470
921.3331, 0.6616820
921.8152, 2.501953
922.2973, 4.165131
922.7794, 1.170135
923.2615, 7.035187
923.7437, 3.045410
924.2258, 10.04462
924.7079, 15.89249
925.1900, 4.469513
925.6721, 5.238464
926.1542, 7.186005
926.6364, 3.396606
927.1185, 11.93460
927.6006, 29.32895
928.0827, 29.77704
928.5648, 10.88275
929.0469, 3.742981
929.5291, 1.920441
930.0112, 13.30441
930.4933, 23.81671
930.9754, 30.88870
931.4575, 27.80377
931.9396, 18.70480
932.4218, 16.77844
932.9039, 26.60757
933.3860, 35.33102
933.8681, 31.18536
934.3502, 20.27582
934.8323, 6.982758
935.3145, 5.822540
935.7966, 12.93405
936.2787, 13.35648
936.7608, 4.743347
937.2429, 14.95410
937.7250, 30.98917
938.2072, 19.64877
938.6893, 6.425568
939.1714, 19.83920
939.6535, 21.42493
940.1356, 14.31091
940.6177, 0.4334110
941.0999, 10.57962
941.5820, 11.61493
942.0641, 7.716888
942.5462, 9.219269
943.0283, 14.10773
943.5104, 10.01132
943.9926, 2.672394
944.4747, 12.48407
944.9568, 15.92551
945.4389, 14.54266
945.9210, 9.324310
946.4031, 1.234955
946.8853, 8.221619
947.3674, 19.02820
947.8495, 24.41968
948.3316, 23.55713
948.8137, 22.09357
949.2958, 22.23334
949.7780, 22.31464
950.2601, 20.15958
950.7422, 16.56204
951.2243, 15.82367
951.7064, 18.20862
952.1885, 22.76224
952.6707, 31.37216
953.1528, 33.38455
953.6349, 20.28656
954.1170, 6.014435
954.5991, 11.58420
955.0812, 35.55835
955.5634, 43.19162
956.0455, 25.96158
956.5276, 19.49295
957.0097, 33.86880
957.4918, 47.27182
957.9739, 47.05054
958.4561, 39.93622
958.9382, 36.84680
959.4203, 38.15854
959.9024, 37.79587
960.3845, 33.29974
960.8666, 32.00204
961.3488, 38.11725
961.8309, 43.93484
962.3130, 42.33643
962.7951, 37.74506
963.2772, 40.34668
963.7593, 53.06094
964.2415, 57.24170
964.7236, 42.90567
965.2057, 34.56393
965.6878, 41.03809
966.1699, 50.12262
966.6520, 52.88229
967.1342, 52.80109
967.6163, 58.38571
968.0984, 71.77139
968.5805, 82.97324
969.0626, 92.44812
969.5447, 98.49622
970.0269, 99.95932
970.5090, 98.51392
970.9911, 95.16693
971.4732, 89.96332
971.9553, 82.83746
972.4374, 73.59662
972.9196, 63.07846
973.4017, 46.12595
973.8838, 34.51813
974.3659, 37.43347
974.8480, 43.24753
975.3301, 40.75833
975.8123, 32.43372
976.2944, 27.68170
976.7765, 27.87256
977.2586, 29.36432
977.7407, 36.97879
978.2228, 39.96835
978.7050, 30.31693
979.1871, 15.83478
979.6692, 0.2674870
980.1513, 13.06116
980.6334, 13.80020
981.1155, 7.146667
981.5977, 19.05981
982.0798, 3.135681
982.5619, 13.07367
983.0440, 15.69913
983.5261, 11.46664
984.0082, 4.868439
984.4904, 2.457672
984.9725, 6.280365
985.4546, 2.512177
985.9367, 1.980530
986.4188, 12.68533
986.9009, 22.58740
987.3831, 25.10532
987.8652, 24.28036
988.3473, 24.50018
988.8294, 26.21970
989.3115, 28.27423
989.7936, 29.99774
990.2758, 32.96115
990.7579, 38.66968
991.2400, 44.87100
991.7221, 53.29593
992.2042, 59.26639
992.6863, 52.28342
993.1685, 35.99481
993.6506, 32.00946
994.1327, 51.93402
994.6148, 73.63235
995.0969, 91.67548
995.5790, 102.6552
996.0612, 97.60211
996.5433, 88.11224
997.0254, 91.39282
997.5075, 106.6347
997.9896, 117.7659
998.4717, 117.1789
998.9539, 119.0093
999.4360, 133.7388
999.9181, 148.5568
1000.400, 151.8505
1000.882, 151.5522
1001.364, 157.5527
1001.847, 169.9500
1002.329, 184.7117
1002.811, 201.7875
1003.293, 219.0510
1003.775, 239.7216
1004.257, 256.3018
1004.739, 260.7670
1005.221, 259.0347
1005.703, 258.3141
1006.186, 259.3399
1006.668, 260.5995
1007.150, 262.6593
1007.632, 261.2138
1008.114, 253.4793
1008.596, 242.5242
1009.078, 228.1104
1009.560, 213.1212
1010.043, 201.9694
1010.525, 193.4543
1011.007, 181.1108
1011.489, 160.9823
1011.971, 144.0576
1012.453, 140.6383
1012.935, 135.3918
1013.417, 114.9999
1013.899, 90.66525
1014.382, 74.47299
1014.864, 66.54144
1015.346, 62.29330
1015.828, 61.60696
1016.310, 59.78763
1016.792, 54.92386
1017.274, 48.58038
1017.756, 37.69287
1018.239, 28.82523
1018.721, 31.93591
1019.203, 42.66739
1019.685, 46.52924
1020.167, 38.92426
1020.649, 30.89676
1021.131, 22.09662
1021.613, 18.54681
1022.095, 28.88492
1022.578, 40.71173
1023.060, 41.84735
1023.542, 35.12305
1024.024, 29.43274
1024.506, 26.28683
1024.988, 24.95877
1025.470, 22.43799
1025.952, 25.42062
1026.435, 40.57822
1026.917, 58.38617
1027.399, 70.85236
1027.881, 80.08704
1028.363, 92.80029
1028.845, 110.9050
1029.327, 122.8596
1029.809, 116.7671
1030.292, 117.8702
1030.774, 146.3657
1031.256, 170.7621
1031.738, 162.6895
1032.220, 138.5339
1032.702, 129.4738
1033.184, 139.1009
1033.666, 144.5861
1034.148, 134.4405
1034.630, 132.6462
1035.113, 149.8321
1035.595, 169.1357
1036.077, 180.7020
1036.559, 188.8809
1037.041, 199.9772
1037.523, 214.1226
1038.005, 230.6961
1038.487, 258.1434
1038.970, 275.6362
1039.452, 269.7863
1039.934, 268.1487
1040.416, 283.9355
1040.898, 308.2959
1041.380, 331.3364
1041.862, 353.2493
1042.344, 375.3182
1042.826, 395.6419
1043.309, 418.9584
1043.791, 442.2169
1044.273, 474.8841
1044.755, 524.5146
1045.237, 579.7816
1045.719, 629.6034
1046.201, 675.5172
1046.683, 724.0612
1047.166, 772.9617
1047.648, 834.1621
1048.130, 910.1210
1048.612, 991.6262
1049.094, 1076.491
1049.576, 1163.528
1050.058, 1248.424
1050.540, 1338.336
1051.022, 1455.696
1051.505, 1604.034
1051.987, 1739.896
1052.469, 1857.821
1052.951, 1993.966
1053.433, 2158.622
1053.915, 2333.977
1054.397, 2510.820
1054.879, 2688.607
1055.361, 2870.857
1055.844, 3055.744
1056.326, 3222.409
1056.808, 3372.047
1057.290, 3533.182
1057.772, 3711.351
1058.254, 3848.233
1058.736, 3912.801
1059.218, 3926.379
1059.701, 3915.536
1060.183, 3876.869
1060.665, 3801.964
1061.147, 3689.029
1061.629, 3520.270
1062.111, 3299.363
1062.593, 3067.977
1063.075, 2842.810
1063.557, 2623.166
1064.040, 2409.162
1064.522, 2204.258
1065.004, 2018.900
1065.486, 1848.229
1065.968, 1678.503
1066.450, 1512.987
1066.932, 1366.841
1067.414, 1242.377
1067.896, 1125.916
1068.379, 1007.009
1068.861, 898.3098
1069.343, 821.3856
1069.825, 758.1382
1070.307, 677.9927
1070.789, 593.3491
1071.271, 532.2532
1071.753, 495.7383
1072.236, 464.9859
1072.718, 431.7552
1073.200, 397.9267
1073.682, 363.4603
1074.164, 330.5606
1074.646, 300.6208
1075.128, 273.4107
1075.610, 248.3533
1076.093, 225.8386
1076.575, 208.0869
1077.057, 196.0622
1077.539, 179.1428
1078.021, 146.5096
1078.503, 117.1869
1078.985, 97.54297
1079.467, 84.86731
1079.949, 78.84540
1080.432, 76.77158
1080.914, 75.78256
1081.396, 75.47479
1081.878, 73.63971
1082.360, 67.19614
1082.842, 63.36749
1083.324, 64.59622
1083.806, 67.36670
1084.288, 75.32651
1084.771, 79.57129
1085.253, 66.90887
1085.735, 41.80038
1086.217, 24.15634
1086.699, 15.46359
1087.181, 10.80411
1087.663, 12.89694
1088.145, 13.43002
1088.628, 9.500641
1089.110, 4.959137
1089.592, 2.824280
1090.074, 1.667969
1090.556, 2.875244
1091.038, 11.36289
1091.520, 5.589020
1092.002, 18.91516
1092.484, 26.47043
1092.967, 8.370148
1093.449, 5.971619
1093.931, 0.7413020
1094.413, 9.339355
1094.895, 3.920715
1095.377, 10.16891
1095.859, 3.545837
1096.341, 19.69925
1096.823, 25.14020
1097.306, 12.02942
1097.788, 2.334900
1098.270, 3.046234
1098.752, 6.080688
1099.234, 5.672699
1099.716, 5.362549
1100.198, 12.30869
1100.680, 23.65469
1101.163, 34.83112
1101.645, 44.72168
1102.127, 50.16782
1102.609, 51.98080
1103.091, 55.49820
1103.573, 64.05359
1104.055, 73.73083
1104.537, 82.17111
1105.020, 89.33115
1105.502, 90.71841
1105.984, 93.72742
1106.466, 110.4656
1106.948, 136.5317
1107.430, 160.3827
1107.912, 179.6396
1108.394, 198.6073
1108.876, 221.0956
1109.359, 241.1218
1109.841, 257.1297
1110.323, 269.3621
1110.805, 274.9090
1111.287, 278.0963
1111.769, 285.3799
1112.251, 296.0954
1112.733, 303.9125
1113.215, 305.7737
1113.698, 311.0471
1114.180, 327.7959
1114.662, 335.4861
1115.144, 326.7270
1115.626, 311.5677
1116.108, 295.8530
1116.590, 278.9627
1117.072, 258.8057
1117.555, 235.3220
1118.037, 219.8283
1118.519, 215.8290
1119.001, 198.0015
1119.483, 160.6826
1119.965, 127.6656
1120.447, 109.2986
1120.929, 95.53296
1121.411, 75.27737
1121.894, 54.34445
1122.376, 51.54465
1122.858, 62.24902
1123.340, 61.54807
1123.822, 50.52985
1124.304, 41.48788
1124.786, 36.84567
1125.268, 29.63550
1125.750, 15.52304
1126.233, 4.308136
1126.715, 11.99716
1127.197, 24.86343
1127.679, 23.73264
1128.161, 14.87457
1128.643, 6.156219
1129.125, 0.4378360
1129.607, 3.290527
1130.090, 2.180420
1130.572, 0.9108280
1131.054, 6.540192
1131.536, 11.15506
1132.018, 13.70935
1132.500, 13.76526
1132.982, 6.615570
1133.464, 2.5878999E-02
1133.947, 7.941437
1134.429, 25.01889
1134.911, 26.79483
1135.393, 4.023788
1135.875, 12.28528
1136.357, 18.81183
1136.839, 19.69127
1137.321, 12.21729
1137.803, 4.128967
1138.286, 0.1893160
1138.768, 2.735382
1139.250, 7.010178
1139.732, 12.39102
1140.214, 11.90878
1140.696, 4.388062
1141.178, 1.700165
1141.660, 6.073013
1142.142, 5.147263
1142.625, 2.528320
1143.107, 9.448029
1143.589, 9.565475
1144.071, 6.517197
1144.553, 6.741440
1145.035, 8.923660
1145.517, 9.196884
1145.999, 7.965881
1146.482, 5.929474
1146.964, 3.527008
1147.446, 2.275574
1147.928, 2.728302
1148.410, 4.379044
1148.892, 7.085526
1149.374, 10.60042
1149.856, 14.75780
1150.339, 18.18553
1150.821, 19.25517
1151.303, 18.77779
1151.785, 17.45386
1152.267, 16.06741
1152.749, 17.39604
1153.231, 22.79482
1153.713, 27.48735
1154.195, 31.86235
1154.677, 32.91557
1155.160, 31.61890
1155.642, 24.30151
1156.124, 1.215637
1156.606, 22.87869
1157.088, 24.51842
1157.570, 5.943115
1158.052, 6.949600
1158.534, 14.37245
1159.017, 13.22081
1159.499, 0.7601170
1159.981, 3.695969
1160.463, 6.687317
1160.945, 17.29913
1161.427, 17.52809
1161.909, 11.72940
1162.391, 4.719009
1162.874, 1.325851
1163.356, 4.417145
1163.838, 16.82762
1164.320, 17.24129
1164.802, 7.203842
1165.284, 2.448227
1165.766, 7.483551
1166.248, 12.46523
1166.730, 10.86536
1167.213, 7.100830
1167.695, 1.562164
1168.177, 1.203491
1168.659, 4.888809
1169.141, 14.73355
1169.623, 23.49300
1170.105, 29.86635
1170.587, 31.74365
1171.069, 28.37146
1171.552, 27.40198
1172.034, 35.45206
1172.516, 37.74930
1172.998, 26.86806
1173.480, 17.39258
1173.962, 16.03180
1174.444, 18.12415
1174.926, 19.48289
1175.409, 19.84480
1175.891, 17.80779
1176.373, 13.04712
1176.855, 10.41734
1177.337, 9.915359
1177.819, 11.91780
1178.301, 16.40662
1178.783, 19.40691
1179.266, 18.68954
1179.748, 19.78609
1180.230, 28.53113
1180.712, 39.22704
1181.194, 42.50580
1181.676, 41.39787
1182.158, 39.21288
1182.640, 34.19496
1183.122, 26.27576
1183.604, 16.97926
1184.087, 14.46620
1184.569, 22.85104
1185.051, 29.15402
1185.533, 28.95804
1186.015, 28.43172
1186.497, 27.84006
1186.979, 28.19569
1187.461, 30.95012
1187.944, 34.10364
1188.426, 36.10635
1188.908, 37.05022
1189.390, 35.43027
1189.872, 30.02348
1190.354, 25.60486
1190.836, 21.22856
1191.318, 23.52554
1191.801, 35.51721
1192.283, 41.95766
1192.765, 28.58469
1193.247, 16.82841
1193.729, 18.31078
1194.211, 24.46478
1194.693, 23.77806
1195.175, 18.51323
1195.657, 18.28903
1196.140, 22.53545
1196.622, 19.18864
1197.104, 8.116104
1197.586, 4.995422
1198.068, 15.84576
1198.550, 24.03197
1199.032, 16.11029
1199.514, 9.235703
1199.996, 17.28676
1200.479, 26.95439
1200.961, 27.04300
1201.443, 22.22153
1201.925, 20.86613
1202.407, 22.18359
1202.889, 18.21677
1203.371, 5.695694
1203.853, 2.196991
1204.336, 11.23907
1204.818, 17.33710
1205.300, 17.31728
1205.782, 13.24622
1206.264, 4.965393
1206.746, 0.9712680
1207.228, 3.319855
1207.710, 13.52101
1208.193, 19.69174
1208.675, 22.74832
1209.157, 24.69632
1209.639, 25.88168
1210.121, 28.22391
1210.603, 30.82996
1211.085, 27.58817
1211.567, 15.99380
1212.049, 6.403809
1212.531, 5.268723
1213.014, 7.274475
1213.496, 15.03583
1213.978, 20.98390
1214.460, 18.26845
1214.942, 12.63588
1215.424, 11.53473
1215.906, 13.84564
1216.388, 15.15009
1216.871, 16.59906
1217.353, 13.87744
1217.835, 3.705353
1218.317, 1.165909
1218.799, 7.554871
1219.281, 14.32108
1219.763, 17.99948
1220.245, 20.22929
1220.728, 22.76837
1221.210, 24.38229
1221.692, 22.38623
1222.174, 17.55096
1222.656, 8.376404
1223.138, 0.8448490
1223.620, 0.5034790
1224.102, 7.963165
1224.584, 17.53827
1225.067, 25.89130
1225.549, 30.24869
1226.031, 25.65967
1226.513, 20.61517
1226.995, 10.43793
1227.477, 2.273651
1227.959, 0.0000000E+00
##END=



