##NAMES=Fluorophlogopite
##RRUFFID=R040075
##IDEAL CHEMISTRY=KMg_3_(Si_3_Al)O_10_F_2_
##LOCALITY=unknown
##OWNER=RRUFF
##SOURCE=University of Arizona Mineral Museum
##DESCRIPTION=Green hexagonal tablet
##STATUS=The identification of this mineral has been confirmed by X-ray diffraction and chemical analysis
##URL=rruff.info/R040075
##MEASURED CHEMISTRY=(K_0.93_[box]_0.04_Na_0.03_)(Mg_0.66_Fe_0.30_Ti_0.02_)_3_(Si_0.75_Al_0.25_)_4_O_10_(F_0.90_(OH)_0.06_Cl_0.04_)
124.519, 0.000
125.910, 43.647
127.300, 123.586
128.690, 249.141
130.080, 112.812
131.469, 21.276
132.858, 21.964
134.248, 6.386
135.636, 115.201
137.025, 75.754
138.413, 38.448
139.801, 8.223
141.189, 79.311
142.577, 162.681
143.964, 249.579
145.352, 365.759
146.739, 533.018
148.125, 611.179
149.512, 941.078
150.898, 1131.565
152.284, 1386.501
153.670, 1552.759
155.056, 1934.224
156.441, 2256.793
157.827, 2646.373
159.212, 3296.881
160.596, 3648.248
161.981, 4370.433
163.365, 5103.410
164.749, 6137.160
166.133, 7091.673
167.517, 8476.917
168.900, 9842.841
170.283, 11769.402
171.666, 13986.561
173.049, 16384.260
174.431, 19482.473
175.813, 22861.139
177.195, 26650.223
178.577, 30639.695
179.959, 34579.516
181.340, 38539.668
182.721, 41470.105
184.102, 43790.832
185.483, 44881.797
186.863, 42663.008
188.244, 41474.430
189.624, 37546.047
191.003, 33707.863
192.383, 28919.844
193.762, 25022.037
195.141, 21024.428
196.520, 17827.039
197.899, 14799.980
199.277, 12523.313
200.656, 10637.090
202.034, 8941.132
203.411, 7475.603
204.789, 6540.513
206.166, 5725.901
207.543, 4851.708
208.920, 4297.707
210.297, 3803.830
211.673, 3280.015
213.049, 2936.377
214.425, 2728.953
215.801, 2347.600
217.176, 2222.363
218.552, 1866.135
219.927, 1813.888
221.302, 1691.664
222.676, 1515.406
224.051, 1446.105
225.425, 1392.764
226.799, 1374.380
228.173, 1187.955
229.546, 1143.491
230.919, 1188.986
232.292, 1035.437
233.665, 1180.846
235.038, 1055.214
236.410, 978.541
237.782, 1053.824
239.154, 1096.066
240.526, 1085.271
241.898, 1071.433
243.269, 1112.727
244.640, 1105.157
246.011, 1129.686
247.381, 1214.690
248.752, 1243.936
250.122, 1367.573
251.492, 1366.450
252.861, 1484.282
254.231, 1543.069
255.600, 1552.812
256.969, 1796.509
258.338, 1925.161
259.707, 2152.015
261.075, 2388.839
262.443, 2646.225
263.811, 2986.146
265.179, 3311.386
266.546, 3675.925
267.914, 4124.056
269.281, 4641.879
270.647, 4930.360
272.014, 5263.307
273.380, 5465.427
274.747, 5608.496
276.113, 5520.453
277.478, 5319.397
278.844, 4879.796
280.209, 4576.594
281.574, 4051.979
282.939, 3757.460
284.304, 3421.814
285.668, 3073.356
287.032, 2727.838
288.396, 2583.362
289.760, 2396.142
291.123, 2420.628
292.487, 2273.480
293.850, 2300.364
295.212, 2351.113
296.575, 2368.350
297.937, 2478.395
299.300, 2681.406
300.662, 2650.335
302.023, 2972.785
303.385, 3074.591
304.746, 3189.783
306.107, 3369.236
307.468, 3517.636
308.829, 3689.532
310.189, 3761.913
311.549, 3864.623
312.909, 3788.748
314.269, 4011.782
315.629, 3876.130
316.988, 3927.753
318.347, 3747.463
319.706, 3665.550
321.065, 3491.344
322.423, 3314.489
323.781, 3075.215
325.139, 2864.924
326.497, 2714.779
327.855, 2510.316
329.212, 2437.260
330.569, 2198.984
331.926, 2112.677
333.283, 2033.344
334.639, 1878.830
335.995, 1649.392
337.351, 1591.663
338.707, 1555.134
340.063, 1442.330
341.418, 1460.704
342.773, 1320.151
344.128, 1271.936
345.483, 1252.635
346.837, 1117.660
348.192, 1147.690
349.546, 1056.928
350.899, 1059.062
352.253, 996.111
353.606, 966.408
354.960, 893.393
356.313, 875.263
357.665, 827.222
359.018, 798.189
360.370, 814.196
361.722, 689.248
363.074, 702.087
364.426, 488.934
365.777, 641.716
367.128, 525.334
368.479, 543.209
369.830, 479.730
371.181, 396.205
372.531, 435.672
373.881, 407.303
375.231, 361.633
376.581, 340.916
377.930, 324.300
379.280, 338.480
380.629, 326.609
381.977, 310.079
383.326, 299.962
384.674, 273.265
386.023, 258.281
387.370, 246.146
388.718, 223.248
390.066, 273.028
391.413, 105.789
392.760, 97.446
394.107, 88.054
395.454, 121.594
396.800, 133.179
398.146, 164.678
399.492, 107.051
400.838, 83.613
402.184, 53.877
403.529, 70.081
404.874, 25.395
406.219, 47.481
407.564, 0.510
408.908, 19.478
410.252, 5.385
411.596, 41.232
412.940, 19.980
414.284, 123.261
415.627, 15.362
416.970, 43.925
418.313, 37.572
419.656, 64.143
420.999, 65.796
422.341, 17.538
423.683, 52.356
425.025, 20.743
426.367, 9.227
427.708, 32.727
429.049, 0.391
430.390, 13.269
431.731, 56.873
433.072, 51.299
434.412, 44.818
435.752, 41.468
437.092, 54.243
438.432, 33.132
439.772, 83.120
441.111, 33.227
442.450, 43.466
443.789, 60.837
445.127, 112.342
446.466, 55.005
447.804, 41.807
449.142, 64.760
450.480, 154.857
451.817, 88.106
453.155, 96.474
454.492, 88.963
455.829, 64.569
457.166, 65.281
458.502, 113.088
459.838, 69.024
461.175, 159.075
462.510, 83.928
463.846, 102.134
465.181, 25.903
466.517, 74.640
467.852, 55.307
469.186, 13.088
470.521, 14.038
471.855, 34.084
473.190, 25.058
474.523, 87.956
475.857, 27.212
477.191, 171.516
478.524, 53.184
479.857, 114.779
481.190, 171.311
482.523, 119.781
483.855, 208.185
485.187, 220.528
486.519, 192.810
487.851, 234.028
489.183, 225.181
490.514, 240.656
491.845, 251.315
493.176, 260.287
494.507, 305.198
495.837, 288.048
497.168, 357.838
498.498, 309.570
499.828, 374.243
501.157, 329.857
502.487, 310.413
503.816, 354.908
505.145, 355.345
506.474, 403.724
507.802, 396.355
509.131, 342.331
510.459, 362.566
511.787, 377.744
513.115, 312.867
514.442, 381.930
515.770, 416.942
517.097, 375.917
518.424, 366.851
519.750, 350.745
521.077, 332.603
522.403, 375.423
523.729, 365.197
525.055, 371.922
526.381, 401.592
527.706, 330.220
529.031, 421.800
530.356, 409.348
531.681, 394.864
533.006, 344.344
534.330, 441.789
535.654, 404.198
536.978, 367.562
538.302, 434.870
539.625, 429.135
540.949, 350.357
542.272, 400.526
543.595, 321.658
544.917, 380.734
546.240, 403.754
547.562, 334.727
548.884, 398.649
550.206, 390.518
551.527, 401.847
552.849, 400.072
554.170, 418.195
555.491, 378.388
556.812, 385.560
558.132, 432.793
559.453, 343.718
560.773, 400.474
562.093, 410.037
563.412, 360.599
564.732, 475.848
566.051, 459.179
567.370, 425.988
568.689, 477.949
570.008, 420.702
571.326, 510.688
572.644, 524.968
573.963, 444.628
575.280, 546.165
576.598, 536.866
577.915, 544.503
579.233, 590.341
580.550, 616.945
581.866, 560.449
583.183, 584.639
584.499, 633.662
585.815, 641.308
587.131, 709.320
588.447, 763.272
589.763, 841.292
591.078, 912.612
592.393, 988.118
593.708, 1068.532
595.022, 1151.312
596.337, 1223.178
597.651, 1299.260
598.965, 1448.096
600.279, 1588.958
601.593, 1664.075
602.906, 1874.002
604.219, 2062.600
605.532, 2150.701
606.845, 2395.542
608.158, 2458.853
609.470, 2814.426
610.782, 3056.107
612.094, 3172.187
613.406, 3397.661
614.718, 3756.593
616.029, 3930.408
617.340, 4423.155
618.651, 4438.599
619.962, 4908.328
621.272, 4902.711
622.582, 5305.894
623.892, 5333.771
625.202, 5504.570
626.512, 5622.530
627.821, 5496.089
629.131, 5556.250
630.440, 5598.157
631.749, 5495.714
633.057, 5416.417
634.366, 5476.855
635.674, 5317.062
636.982, 5294.214
638.290, 5416.021
639.597, 5336.143
640.905, 5401.931
642.212, 5504.154
643.519, 5663.402
644.825, 5659.509
646.132, 5878.765
647.438, 5998.958
648.744, 6369.189
650.050, 6669.442
651.356, 6839.708
652.662, 7320.139
653.967, 7570.516
655.272, 8281.121
656.577, 8661.771
657.882, 9232.397
659.186, 10143.025
660.490, 10863.397
661.794, 11984.123
663.098, 13024.901
664.402, 14436.187
665.705, 15939.233
667.009, 17242.881
668.312, 19423.566
669.614, 21234.586
670.917, 23065.043
672.219, 24716.891
673.522, 25991.828
674.824, 26806.109
676.125, 26930.555
677.427, 26956.031
678.728, 25511.078
680.030, 23823.885
681.331, 22126.367
682.631, 19736.955
683.932, 17040.719
685.232, 15183.331
686.532, 12879.047
687.832, 11475.023
689.132, 9669.896
690.432, 8165.220
691.731, 7380.084
693.030, 6482.605
694.329, 5570.970
695.628, 5102.826
696.926, 4505.103
698.224, 4086.728
699.522, 3721.085
700.820, 3445.157
702.118, 3256.457
703.415, 3119.035
704.713, 2996.255
706.010, 2841.588
707.307, 2776.637
708.603, 2596.862
709.900, 2518.529
711.196, 2544.573
712.492, 2432.712
713.788, 2438.806
715.083, 2294.017
716.379, 2273.847
717.674, 2313.935
718.969, 2179.857
720.264, 2180.818
721.558, 2083.844
722.853, 2034.878
724.147, 1996.764
725.441, 1866.642
726.735, 1864.514
728.028, 1761.378
729.322, 1754.243
730.615, 1577.138
731.908, 1482.025
733.201, 1534.907
734.493, 1397.796
735.785, 1337.701
737.078, 1262.623
738.370, 1257.548
739.661, 1149.489
740.953, 1156.425
742.244, 1053.365
743.535, 1016.302
744.826, 1021.241
746.117, 989.187
747.407, 974.151
748.698, 938.133
749.988, 899.131
751.278, 889.145
752.567, 887.654
753.857, 873.536
755.146, 910.304
756.435, 889.396
757.724, 890.692
759.013, 940.641
760.301, 923.812
761.590, 964.007
762.878, 1025.222
764.165, 956.462
765.453, 951.753
766.741, 1029.076
768.028, 968.435
769.315, 1024.828
770.602, 951.249
771.888, 908.697
773.175, 946.187
774.461, 832.706
775.747, 923.278
777.033, 825.885
778.319, 785.531
779.604, 787.183
780.889, 708.868
782.174, 696.579
783.459, 676.307
784.744, 568.045
786.028, 483.788
787.312, 576.539
788.596, 469.291
789.880, 494.064
791.164, 387.836
792.447, 407.612
793.730, 352.389
795.013, 227.165
796.296, 293.942
797.579, 202.718
798.861, 256.493
800.143, 180.267
801.425, 145.039
802.707, 223.811
803.989, 117.581
805.270, 164.349
806.551, 158.117
807.832, 80.881
809.113, 177.645
810.394, 26.404
811.674, 103.160
812.954, 41.912
814.234, 76.660
815.514, 32.406
816.794, 15.146
818.073, 5.118
819.352, 38.393
820.631, 51.695
821.910, 24.971
823.189, 2.368
824.467, 20.283
825.745, 19.069
827.023, 68.439
828.301, 59.851
829.578, 63.301
830.856, 80.791
832.133, 75.329
833.410, 36.913
834.687, 32.523
835.963, 5.844
837.240, 50.796
838.516, 37.469
839.792, 82.167
841.068, 86.468
842.343, 69.717
843.618, 80.562
844.894, 69.445
846.169, 32.372
847.443, 13.678
848.718, 38.265
849.992, 45.236
851.266, 3.237
852.540, 63.246
853.814, 14.705
855.088, 14.655
856.361, 18.399
857.634, 17.468
858.907, 11.449
860.180, 10.637
861.453, 32.284
862.725, 21.793
863.997, 70.113
865.269, 19.031
866.541, 33.948
867.812, 18.880
869.084, 48.809
870.355, 40.746
871.626, 81.691
872.897, 25.640
874.167, 48.588
875.438, 43.545
876.708, 101.510
877.978, 83.481
879.248, 110.457
880.517, 131.435
881.787, 133.419
883.056, 148.403
884.325, 218.387
885.594, 108.370
886.862, 259.352
888.130, 160.333
889.399, 189.313
890.667, 281.293
891.934, 198.278
893.202, 265.263
894.469, 240.249
895.737, 260.250
897.004, 321.251
898.270, 243.250
899.537, 326.249
900.803, 331.248
902.070, 298.245
903.336, 448.244
904.601, 335.241
905.867, 412.238
907.132, 323.232
908.398, 387.225
909.663, 381.215
910.928, 378.204
912.192, 330.497
913.457, 404.511
914.721, 448.971
915.985, 465.474
917.249, 370.276
918.512, 419.310
919.776, 410.542
921.039, 399.396
922.302, 468.719
923.565, 389.751
924.827, 457.786
926.090, 467.146
927.352, 462.894
928.614, 523.854
929.876, 568.818
931.138, 532.776
932.399, 587.729
933.660, 538.677
934.922, 581.620
936.182, 573.558
937.443, 624.490
938.704, 569.417
939.964, 638.338
941.224, 593.254
942.484, 667.163
943.744, 666.067
945.003, 730.965
946.262, 735.858
947.521, 761.747
948.780, 785.628
950.039, 754.504
951.298, 865.374
952.556, 850.239
953.814, 775.100
955.072, 919.954
956.330, 843.803
957.587, 927.646
958.845, 937.483
960.102, 984.273
961.359, 998.098
962.615, 1001.648
963.872, 1046.604
965.128, 1094.065
966.384, 1108.808
967.640, 1145.360
968.896, 1163.834
970.152, 1193.969
971.407, 1247.298
972.662, 1240.771
973.917, 1212.264
975.172, 1327.465
976.427, 1289.935
977.681, 1404.279
978.935, 1378.602
980.189, 1509.444
981.443, 1467.053
982.697, 1528.546
983.950, 1618.367
985.203, 1637.585
986.456, 1649.062
987.709, 1828.436
988.962, 1786.744
990.214, 1829.877
991.467, 1963.193
992.719, 1964.296
993.971, 2105.377
995.222, 2141.923
996.474, 2239.010
997.725, 2312.527
998.976, 2418.052
1000.227, 2517.228
1001.478, 2661.825
1002.728, 2792.797
1003.978, 2897.634
1005.229, 3117.172
1006.479, 3300.571
1007.728, 3519.975
1008.978, 3773.320
1010.227, 4006.847
1011.476, 4510.095
1012.725, 4674.408
1013.974, 5220.645
1015.223, 5489.396
1016.471, 6157.060
1017.719, 6780.577
1018.967, 7290.116
1020.215, 8101.542
1021.462, 8743.619
1022.710, 9204.089
1023.957, 9983.655
1025.204, 10125.867
1026.451, 10617.612
1027.697, 10698.555
1028.944, 10579.561
1030.190, 10189.564
1031.436, 9800.883
1032.682, 9200.623
1033.928, 8790.388
1035.173, 7970.020
1036.418, 7699.690
1037.663, 6969.396
1038.908, 6519.018
1040.153, 6308.756
1041.398, 5763.798
1042.642, 5727.581
1043.886, 5182.743
1045.130, 5023.170
1046.374, 5075.770
1047.617, 4793.513
1048.860, 4609.370
1050.104, 4591.131
1051.347, 4433.940
1052.589, 4451.019
1053.832, 4187.853
1055.074, 4105.531
1056.316, 4118.110
1057.558, 3916.748
1058.800, 3866.445
1060.042, 3715.156
1061.283, 3550.856
1062.524, 3386.415
1063.765, 3242.109
1065.006, 3097.250
1066.247, 3008.871
1067.487, 2772.479
1068.728, 2730.170
1069.968, 2568.757
1071.208, 2401.470
1072.447, 2409.976
1073.687, 2124.582
1074.926, 2033.038
1076.165, 2000.529
1077.404, 1840.123
1078.643, 1812.364
1079.881, 1685.840
1081.120, 1582.412
1082.358, 1538.927
1083.596, 1393.456
1084.834, 1319.115
1086.071, 1276.629
1087.309, 1173.070
1088.546, 1177.508
1089.783, 1027.938
1091.020, 984.362
1092.256, 943.945
1093.493, 920.504
1094.729, 869.064
1095.965, 814.671
1097.201, 798.066
1098.436, 659.467
1099.672, 585.853
1100.907, 605.756
1102.142, 647.273
1103.377, 480.680
1104.612, 478.342
1105.846, 426.696
1107.081, 374.061
1108.315, 357.826
1109.549, 314.834
1110.782, 313.420
1112.016, 249.767
1113.249, 251.107
1114.483, 225.663
1115.716, 255.997
1116.948, 203.385
1118.181, 215.908
1119.413, 158.232
1120.646, 171.837
1121.878, 154.561
1123.110, 160.982
1124.341, 141.641
1125.573, 95.969
1126.804, 94.338
1128.035, 66.837
1129.266, 116.353
1130.497, 58.830
1131.727, 100.394
1132.957, 54.798
1134.188, 84.480
1135.418, 52.889
1136.647, 87.294
1137.877, 77.909
1139.106, 84.350
1140.335, 36.860
1141.564, 76.320
1142.793, 34.140
1144.022, 70.327
1145.250, 27.968
1146.479, 34.479
1147.707, 47.050
1148.934, 69.514
1150.162, 33.195
1151.390, 19.785
1152.617, 4.262
1153.844, 97.773
1155.071, 10.271
1156.298, 36.734
1157.524, 26.332
1158.751, 70.191
1159.977, 9.572
1161.203, 8.059
1162.428, 45.402
1163.654, 3.969
1164.879, 59.523
1166.105, 34.797
1167.330, 24.836
1168.555, 35.546
1169.779, 7.232
1171.004, 36.156
1172.228, 36.608
1173.452, 29.368
1174.676, 14.191
1175.900, 15.032
1177.123, 1.104
1178.346, 19.770
1179.570, 43.332
1180.793, 37.424
1182.015, 68.507
1183.238, 58.582
1184.460, 50.041
1185.683, 87.969
1186.905, 41.289
1188.126, 14.556
1189.348, 29.463
1190.569, 0.354
1191.791, 52.287
1193.012, 72.667
1194.233, 36.718
1195.453, 8.653
1196.674, 30.656
1197.894, 18.569
1199.114, 1.486
1200.334, 11.580
1201.554, 47.573
1202.774, 70.441
1203.993, 57.157
1205.212, 42.005
1206.431, 38.021
1207.650, 39.849
1208.869, 72.666
1210.087, 39.542
1211.305, 1.372
1212.524, 55.155
1213.741, 5.941
1214.959, 36.812
1216.177, 60.555
1217.394, 29.445
1218.611, 78.167
1219.828, 52.883
1221.045, 19.157
1222.261, 105.696
1223.478, 53.690
1224.694, 15.609
1225.910, 106.025
1227.126, 55.699
1228.342, 68.312
1229.557, 63.912
1230.772, 31.501
1231.987, 65.082
1233.202, 87.655
1234.417, 80.916
1235.631, 90.778
1236.846, 94.416
1238.060, 42.967
1239.274, 47.498
1240.488, 46.057
1241.701, 33.569
1242.915, 89.073
1244.128, 80.568
1245.341, 83.056
1246.554, 7.534
1247.767, 49.000
1248.979, 74.490
1250.191, 17.969
1251.403, 148.540
1252.615, 80.960
1253.827, 71.419
1255.039, 97.945
1256.250, 30.440
1257.461, 98.466
1258.672, 104.837
1259.883, 39.314
1261.094, 122.666
1262.304, 77.000
1263.514, 45.051
1264.724, 94.366
1265.934, 28.752
1267.144, 69.046
1268.354, 21.329
1269.563, 2.400
1270.772, 100.094
1271.981, 83.338
1273.190, 55.574
1274.398, 55.105
1275.607, 67.321
1276.815, 50.593
1278.023, 92.791
1279.231, 31.050
1280.439, 104.270
1281.646, 113.542
1282.853, 46.696
1284.060, 89.936
1285.267, 77.632
1286.474, 94.179
1287.681, 78.293
1288.887, 95.244
1290.093, 55.472
1291.299, 2.438
1292.505, 75.271
1293.711, 121.312
1294.916, 42.354
1296.121, 63.286
1297.327, 94.155
1298.531, 82.939
1299.736, 84.934
1300.941, 100.716
1302.145, 60.597
1303.349, 89.411
1304.553, 41.740
1305.757, 34.926
1306.961, 58.670
1308.164, 98.477
1309.367, 53.149
1310.570, 116.023
1311.773, 71.801
1312.976, 102.806
1314.178, 68.115
1315.381, 46.147
1316.583, 91.834
1317.785, 69.949
1318.987, 77.496
1320.188, 91.238
1321.390, 79.397
1322.591, 89.014
1323.792, 77.069
1324.993, 97.682
1326.193, 105.257
1327.394, 95.951
1328.594, 21.590
1329.794, 63.205
1330.994, 15.128
1332.194, 46.656
1333.394, 91.866
1334.593, 31.320
1335.792, 55.381
1336.991, 76.192
1338.190, 43.787
1339.389, 99.207
1340.587, 50.495
1341.786, 74.843
1342.984, 66.152
1344.182, 20.150
1345.379, 41.376
1346.577, 77.741
1347.774, 5.816
1348.972, 71.551
1350.169, 26.844
1351.365, 73.106
1352.562, 142.363
1353.759, 52.799
1354.955, 61.021
1356.151, 91.868
1357.347, 37.125
1358.543, 81.379
1359.738, 87.559
1360.934, 29.826
1362.129, 92.942
1363.324, 69.938
1364.519, 13.144
1365.713, 24.445
1366.908, 5.990
1368.102, 56.120
1369.296, 84.556
1370.490, 52.666
1371.684, 92.564
1372.877, 104.265
1374.071, 72.163
1375.264, 129.711
1376.457, 102.516
1377.650, 65.306
1378.843, 142.759
1380.035, 43.140
1381.227, 61.865
1382.419, 76.025
1383.611, 55.524
1384.803, 93.878
1385.995, 84.765
1387.186, 66.780
1388.377, 88.357
1389.568, 69.665
1390.759, 66.901
1391.950, 56.089
1393.140, 56.025
1394.331, 28.932
1395.521, 82.119
1396.711, 41.807
1397.900, 32.342
1399.090, 37.357
1400.279, 19.562
1401.469, 121.625
1402.658, 11.187
1403.847, 111.896
1405.035, 67.716
1406.224, 5.301
1407.412, 84.772
1408.600, 40.888
1409.788, 67.902
1410.976, 114.795
1412.164, 88.502
1413.351, 10.511
1414.538, 82.675
1415.725, 86.859
1416.912, 4.924
1418.099, 79.175
1419.285, 43.502
1420.472, 109.843
1421.658, 42.185
1422.844, 49.184
1424.030, 34.014
1425.215, 61.141
1426.401, 25.060
1427.586, 92.238
1428.771, 89.453
1429.956, 120.770
1431.141, 116.576
1432.325, 25.455
1433.510, 123.459
1434.694, 99.759
1435.878, 52.879
1437.062, 127.944
1438.245, 78.256
1439.429, 58.276
1440.612, 127.091
1441.795, 79.454
1442.978, 82.687
1444.161, 103.920
1445.343, 7.735
1446.526, 100.602
1447.708, 41.923
1448.890, 7.976
1450.072, 150.248
1451.253, 135.538
1452.435, 69.819
1453.616, 107.093
1454.797, 123.216
1455.978, 83.184
1457.159, 130.822
1458.340, 70.656
1459.520, 94.900
1460.700, 161.899
1461.880, 3.002
1463.060, 119.744
1464.240, 130.697
1465.420, 90.971
1466.599, 83.006
1467.778, 106.686
1468.957, 119.309
1470.136, 121.665
1471.315, 42.997
1472.493, 4.753
1473.671, 122.481
1474.849, 58.737
1476.027, 166.336
1477.205, 125.995
1478.383, 41.601
1479.560, 113.217
1480.737, 99.772
1481.914, 51.809
1483.091, 45.608
1484.268, 35.637
1485.444, 48.563
1486.621, 54.108
1487.797, 71.829
1488.973, 77.706
1490.149, 52.947
1491.324, 57.164
1492.500, 123.340
1493.675, 97.312
1494.850, 23.571
1496.025, 113.456
1497.200, 15.995
1498.374, 66.764
1499.548, 73.772
1500.723, 31.700
1501.897, 31.849
1503.071, 34.083
1504.244, 5.705
1505.418, 30.738
1506.591, 83.681
1507.764, 4.033
1508.937, 121.357
1510.110, 16.423
1511.282, 33.265
1512.455, 34.857
1513.627, 19.184
1514.799, 0.000
##END=



