##NAMES=Fluorapophyllite-(K)
##RRUFFID=R050021
##IDEAL CHEMISTRY=KCa_4_Si_8_O_20_F&#183;8H_2_O
##LOCALITY=Poona, Maharashtra State, India
##OWNER=RRUFF
##SOURCE=Eugene Schlepp
##DESCRIPTION=Colorless tetragonal prisms
##STATUS=The identification of this mineral has been confirmed by X-ray diffraction and chemical analysis
##URL=rruff.info/R050021
##MEASURED CHEMISTRY=(K_0.98_Na_0.02_)_Σ=1_Ca_4.00_Si_8.00_O_20_(F_0.84_(OH)_0.16_)_Σ=1_·8H_2_O
130.3772, 0.0000000E+00
130.8593, 3.482910
131.3414, 14.55688
131.8235, 73.72168
132.3056, 165.1082
132.7877, 275.3662
133.2699, 398.3689
133.7520, 533.8616
134.2341, 654.2258
134.7162, 735.2131
135.1983, 777.0740
135.6804, 846.1716
136.1626, 936.7253
136.6447, 1059.306
137.1268, 1248.835
137.6089, 1522.567
138.0910, 1795.914
138.5731, 2039.836
139.0553, 2277.174
139.5374, 2396.198
140.0195, 2372.228
140.5016, 2220.346
140.9837, 1983.637
141.4658, 1613.501
141.9480, 1231.298
142.4301, 919.1184
142.9122, 688.8516
143.3943, 504.7913
143.8764, 367.0122
144.3585, 275.9031
144.8407, 205.8630
145.3228, 167.3401
145.8049, 142.3494
146.2870, 114.7041
146.7691, 81.42700
147.2512, 49.53784
147.7334, 16.48413
148.2155, 23.31445
148.6976, 40.12891
149.1797, 28.62109
149.6618, 4.459229
150.1439, 49.78540
150.6261, 123.6626
151.1082, 194.5312
151.5903, 253.7708
152.0724, 297.6965
152.5545, 337.4028
153.0366, 374.7993
153.5188, 408.1636
154.0009, 433.9910
154.4830, 448.6851
154.9651, 458.3130
155.4472, 464.9148
155.9293, 461.2830
156.4115, 467.4885
156.8936, 481.0000
157.3757, 505.8430
157.8578, 552.2334
158.3399, 628.9023
158.8221, 724.5791
159.3042, 832.6091
159.7863, 950.8833
160.2684, 1081.767
160.7505, 1215.459
161.2326, 1357.000
161.7148, 1536.102
162.1969, 1785.178
162.6790, 2071.463
163.1611, 2359.939
163.6432, 2632.493
164.1253, 2912.395
164.6075, 3241.065
165.0896, 3620.916
165.5717, 3934.900
166.0538, 4153.808
166.5359, 4258.700
167.0180, 4225.516
167.5002, 3988.362
167.9823, 3645.198
168.4644, 3246.071
168.9465, 2784.896
169.4286, 2335.541
169.9107, 1935.425
170.3929, 1588.042
170.8750, 1290.344
171.3571, 1056.640
171.8392, 868.7896
172.3213, 709.3647
172.8034, 578.1592
173.2856, 474.4199
173.7677, 405.6599
174.2498, 366.5068
174.7319, 339.5500
175.2140, 325.0349
175.6961, 313.4922
176.1783, 289.1685
176.6604, 245.9519
177.1425, 195.5601
177.6246, 148.8325
178.1067, 106.5186
178.5888, 70.35181
179.0710, 44.75708
179.5531, 26.79053
180.0352, 10.20557
180.5173, 7.645020
180.9994, 23.40039
181.4815, 31.80713
181.9637, 32.95532
182.4458, 27.30835
182.9279, 14.65845
183.4100, 4.637451
183.8921, 29.47998
184.3742, 60.59375
184.8564, 96.64331
185.3385, 132.9175
185.8206, 169.4590
186.3027, 209.4705
186.7848, 258.8247
187.2669, 316.2397
187.7491, 374.2778
188.2312, 422.2300
188.7133, 468.7834
189.1954, 528.4241
189.6775, 601.6641
190.1596, 682.3032
190.6418, 758.4099
191.1239, 829.8662
191.6060, 920.3372
192.0881, 1048.328
192.5702, 1208.568
193.0524, 1355.565
193.5345, 1486.828
194.0166, 1610.682
194.4987, 1734.857
194.9808, 1858.898
195.4629, 1988.943
195.9451, 2128.969
196.4272, 2280.974
196.9093, 2427.421
197.3914, 2563.547
197.8735, 2698.837
198.3556, 2853.060
198.8378, 3027.301
199.3199, 3207.835
199.8020, 3391.010
200.2841, 3576.819
200.7662, 3751.927
201.2483, 3911.370
201.7305, 4063.553
202.2126, 4232.167
202.6947, 4422.269
203.1768, 4609.930
203.6589, 4774.575
204.1410, 4908.130
204.6232, 5065.393
205.1053, 5252.729
205.5874, 5466.109
206.0695, 5696.162
206.5516, 5948.810
207.0337, 6202.848
207.5159, 6455.064
207.9980, 6710.606
208.4801, 6920.702
208.9622, 7092.312
209.4443, 7213.485
209.9264, 7224.643
210.4086, 7119.333
210.8907, 6915.756
211.3728, 6616.131
211.8549, 6192.948
212.3370, 5756.912
212.8191, 5311.956
213.3013, 4864.786
213.7834, 4434.730
214.2655, 4013.279
214.7476, 3621.156
215.2297, 3281.021
215.7118, 2994.503
216.1940, 2747.477
216.6761, 2543.568
217.1582, 2380.469
217.6403, 2228.077
218.1224, 2086.159
218.6045, 1957.562
219.0867, 1844.104
219.5688, 1743.914
220.0509, 1665.874
220.5330, 1616.480
221.0151, 1595.536
221.4972, 1578.885
221.9794, 1560.503
222.4615, 1552.916
222.9436, 1571.975
223.4257, 1630.616
223.9078, 1689.431
224.3899, 1734.459
224.8721, 1763.358
225.3542, 1818.291
225.8363, 1910.617
226.3184, 2018.600
226.8005, 2119.744
227.2827, 2215.268
227.7648, 2300.544
228.2469, 2377.049
228.7290, 2446.748
229.2111, 2491.115
229.6932, 2507.778
230.1754, 2500.576
230.6575, 2476.076
231.1396, 2443.715
231.6217, 2376.554
232.1038, 2259.534
232.5859, 2081.020
233.0681, 1915.093
233.5502, 1765.321
234.0323, 1626.176
234.5144, 1486.327
234.9965, 1338.425
235.4786, 1204.334
235.9608, 1094.928
236.4429, 1020.488
236.9250, 927.1672
237.4071, 799.5005
237.8892, 663.2305
238.3713, 560.4744
238.8535, 506.2332
239.3356, 460.2588
239.8177, 411.0081
240.2998, 357.7395
240.7819, 303.3984
241.2640, 242.1370
241.7462, 182.1047
242.2283, 138.0107
242.7104, 116.9065
243.1925, 100.2051
243.6746, 82.28296
244.1567, 62.73340
244.6389, 43.04712
245.1210, 23.18896
245.6031, 3.253174
246.0852, 16.59497
246.5673, 37.17944
247.0494, 56.36914
247.5316, 74.17456
248.0137, 92.25439
248.4958, 103.1885
248.9779, 105.4448
249.4600, 101.3582
249.9421, 94.65161
250.4243, 83.49390
250.9064, 72.91528
251.3885, 65.00049
251.8706, 60.79028
252.3527, 55.19922
252.8348, 45.92188
253.3170, 36.67529
253.7991, 36.44922
254.2812, 52.87549
254.7633, 63.74219
255.2454, 60.00049
255.7275, 38.40771
256.2097, 13.40625
256.6918, 18.30859
257.1739, 50.91357
257.6560, 72.85474
258.1381, 79.34521
258.6202, 85.10840
259.1024, 95.83130
259.5845, 112.4773
260.0666, 129.7102
260.5487, 147.9167
261.0308, 166.3767
261.5129, 184.0088
261.9951, 199.1069
262.4772, 217.0715
262.9593, 239.6450
263.4414, 267.2212
263.9235, 299.5869
264.4056, 340.5671
264.8878, 383.1624
265.3699, 415.1331
265.8520, 433.6958
266.3341, 450.4341
266.8162, 471.2688
267.2983, 497.8201
267.7805, 516.5649
268.2626, 526.0764
268.7447, 529.1245
269.2268, 530.3950
269.7089, 530.2566
270.1910, 527.0376
270.6732, 520.2561
271.1553, 509.9802
271.6374, 495.2832
272.1195, 475.7874
272.6016, 452.3767
273.0837, 426.2559
273.5659, 396.6343
274.0480, 367.7012
274.5301, 338.4958
275.0122, 308.7783
275.4943, 291.9675
275.9764, 290.8909
276.4586, 297.4045
276.9407, 299.6318
277.4228, 297.0190
277.9049, 294.5071
278.3870, 292.3623
278.8691, 290.8677
279.3513, 295.9883
279.8334, 307.2236
280.3155, 326.3711
280.7976, 360.5554
281.2798, 410.3315
281.7619, 454.7554
282.2440, 481.0129
282.7261, 492.8530
283.2082, 521.1465
283.6903, 568.8267
284.1725, 622.1753
284.6546, 661.0044
285.1367, 685.8228
285.6188, 719.4558
286.1009, 773.0459
286.5830, 842.2417
287.0652, 905.8447
287.5473, 961.2539
288.0294, 1022.987
288.5115, 1110.546
288.9936, 1221.729
289.4757, 1333.941
289.9579, 1438.970
290.4400, 1540.262
290.9221, 1650.419
291.4042, 1769.702
291.8863, 1894.584
292.3684, 2022.401
292.8506, 2152.907
293.3327, 2287.480
293.8148, 2433.678
294.2969, 2581.005
294.7790, 2712.813
295.2611, 2829.577
295.7433, 2933.573
296.2254, 3037.046
296.7075, 3132.181
297.1896, 3193.642
297.6717, 3211.535
298.1538, 3196.425
298.6360, 3160.464
299.1181, 3103.802
299.6002, 3032.101
300.0823, 2940.557
300.5644, 2838.341
301.0465, 2741.403
301.5287, 2656.137
302.0108, 2573.920
302.4929, 2480.864
302.9750, 2378.795
303.4571, 2287.345
303.9392, 2216.906
304.4214, 2165.017
304.9035, 2127.909
305.3856, 2107.051
305.8677, 2097.703
306.3498, 2101.656
306.8319, 2115.929
307.3141, 2129.673
307.7962, 2134.864
308.2783, 2137.821
308.7604, 2144.867
309.2425, 2157.603
309.7246, 2172.396
310.2068, 2188.436
310.6889, 2205.377
311.1710, 2221.990
311.6531, 2240.226
312.1352, 2254.448
312.6173, 2258.443
313.0995, 2245.881
313.5816, 2242.981
314.0637, 2266.924
314.5458, 2309.016
315.0279, 2351.793
315.5100, 2387.482
315.9922, 2421.473
316.4743, 2457.061
316.9564, 2495.289
317.4385, 2532.194
317.9206, 2560.556
318.4027, 2588.145
318.8849, 2625.822
319.3670, 2697.647
319.8491, 2761.456
320.3312, 2800.939
320.8133, 2812.669
321.2954, 2814.017
321.7776, 2803.503
322.2597, 2786.260
322.7418, 2768.105
323.2239, 2753.724
323.7060, 2734.933
324.1881, 2711.660
324.6703, 2685.333
325.1524, 2644.624
325.6345, 2578.455
326.1166, 2503.441
326.5987, 2432.267
327.0808, 2355.747
327.5630, 2294.132
328.0451, 2250.329
328.5272, 2224.104
329.0093, 2211.150
329.4914, 2222.798
329.9735, 2237.641
330.4557, 2241.422
330.9378, 2226.222
331.4199, 2212.922
331.9020, 2197.420
332.3841, 2184.043
332.8662, 2197.110
333.3484, 2252.641
333.8305, 2310.098
334.3126, 2346.326
334.7947, 2352.613
335.2768, 2364.193
335.7589, 2386.388
336.2411, 2412.814
336.7232, 2429.380
337.2053, 2436.991
337.6874, 2431.581
338.1695, 2409.400
338.6516, 2369.311
339.1338, 2324.985
339.6159, 2279.222
340.0980, 2225.692
340.5801, 2155.013
341.0622, 2065.776
341.5443, 1963.504
342.0265, 1843.443
342.5086, 1708.861
342.9907, 1578.821
343.4728, 1453.857
343.9549, 1335.581
344.4370, 1229.699
344.9192, 1135.728
345.4013, 1043.996
345.8834, 952.7063
346.3655, 862.0293
346.8476, 773.0598
347.3297, 685.8157
347.8119, 608.2844
348.2940, 554.6858
348.7761, 518.2930
349.2582, 479.5493
349.7403, 428.2776
350.2225, 375.8201
350.7046, 338.9868
351.1867, 316.2798
351.6688, 298.6050
352.1509, 279.6799
352.6331, 261.4316
353.1152, 247.8784
353.5973, 243.3926
354.0794, 237.2249
354.5615, 220.1814
355.0436, 193.6472
355.5258, 161.8445
356.0079, 121.6055
356.4900, 80.15088
356.9721, 43.33887
357.4542, 11.91699
357.9363, 14.36426
358.4185, 36.06470
358.9006, 52.69775
359.3827, 63.40674
359.8648, 63.70972
360.3469, 61.29443
360.8290, 60.03369
361.3112, 60.47241
361.7933, 60.42236
362.2754, 62.86328
362.7575, 63.07251
363.2396, 55.87891
363.7217, 33.89893
364.2039, 10.70044
364.6860, 10.65405
365.1681, 30.14526
365.6502, 48.80029
366.1323, 60.39429
366.6144, 75.14966
367.0966, 100.3240
367.5787, 147.3652
368.0608, 190.6406
368.5429, 226.5398
369.0250, 256.9275
369.5071, 290.0654
369.9893, 323.6692
370.4714, 362.4353
370.9535, 411.3093
371.4356, 482.9382
371.9177, 534.1611
372.3998, 559.8838
372.8820, 567.2710
373.3641, 572.5085
373.8462, 578.5583
374.3283, 574.9097
374.8104, 558.1938
375.2925, 528.3442
375.7747, 482.1650
376.2568, 415.3604
376.7389, 340.0208
377.2210, 268.9988
377.7031, 201.6084
378.1852, 149.4824
378.6674, 121.6980
379.1495, 111.6155
379.6316, 84.30200
380.1137, 37.26172
380.5958, 2.497803
381.0779, 2.250488
381.5601, 30.23755
382.0422, 55.29199
382.5243, 60.77905
383.0064, 59.44849
383.4885, 73.85425
383.9706, 102.3491
384.4528, 131.6060
384.9349, 149.7891
385.4170, 163.7246
385.8991, 185.7681
386.3812, 219.3325
386.8633, 256.7773
387.3455, 288.1340
387.8276, 317.6609
388.3097, 355.8196
388.7918, 414.1741
389.2739, 478.8608
389.7560, 539.6799
390.2382, 595.7854
390.7203, 648.7556
391.2024, 697.2842
391.6845, 745.0869
392.1666, 796.9370
392.6487, 849.8228
393.1309, 909.1035
393.6130, 977.3108
394.0951, 1051.980
394.5772, 1124.465
395.0593, 1203.305
395.5414, 1277.965
396.0236, 1338.651
396.5057, 1368.265
396.9878, 1399.499
397.4699, 1440.362
397.9520, 1485.506
398.4341, 1517.958
398.9163, 1531.209
399.3984, 1538.843
399.8805, 1546.813
400.3626, 1559.689
400.8447, 1558.393
401.3268, 1536.690
401.8090, 1503.748
402.2911, 1471.624
402.7732, 1439.991
403.2553, 1413.612
403.7374, 1397.687
404.2195, 1390.686
404.7017, 1363.250
405.1838, 1310.625
405.6659, 1252.761
406.1480, 1207.150
406.6301, 1174.077
407.1122, 1145.831
407.5944, 1119.936
408.0765, 1098.370
408.5586, 1089.537
409.0407, 1092.099
409.5228, 1093.108
410.0049, 1078.624
410.4871, 1055.283
410.9692, 1045.464
411.4513, 1053.564
411.9334, 1069.049
412.4155, 1077.562
412.8976, 1083.521
413.3798, 1098.888
413.8619, 1133.535
414.3440, 1178.005
414.8261, 1220.756
415.3082, 1261.586
415.7903, 1311.021
416.2725, 1373.057
416.7546, 1449.242
417.2367, 1543.435
417.7188, 1664.418
418.2009, 1794.086
418.6830, 1922.232
419.1652, 2051.510
419.6473, 2186.758
420.1294, 2313.874
420.6115, 2459.993
421.0937, 2644.698
421.5758, 2880.013
422.0579, 3128.633
422.5400, 3383.942
423.0221, 3649.078
423.5042, 3935.983
423.9864, 4251.102
424.4685, 4576.996
424.9506, 4911.194
425.4327, 5247.785
425.9148, 5612.705
426.3969, 6009.365
426.8791, 6430.153
427.3612, 6864.572
427.8433, 7310.702
428.3254, 7776.317
428.8075, 8274.840
429.2896, 8787.518
429.7718, 9259.981
430.2539, 9706.333
430.7360, 10048.14
431.2181, 10265.62
431.7002, 10352.15
432.1823, 10197.58
432.6645, 9780.706
433.1466, 9172.516
433.6287, 8411.754
434.1108, 7527.916
434.5929, 6659.138
435.0750, 5837.393
435.5572, 5085.290
436.0393, 4451.781
436.5214, 3934.748
437.0035, 3487.205
437.4856, 3096.306
437.9677, 2748.942
438.4499, 2428.884
438.9320, 2130.331
439.4141, 1865.145
439.8962, 1649.566
440.3783, 1474.475
440.8604, 1310.770
441.3426, 1143.311
441.8247, 987.9199
442.3068, 855.4648
442.7889, 749.8999
443.2710, 653.9058
443.7531, 563.8318
444.2353, 480.8672
444.7174, 404.8521
445.1995, 332.7283
445.6816, 272.0728
446.1637, 204.9468
446.6458, 216.0539
447.1280, 215.3746
447.6101, 203.5835
448.0922, 145.3257
448.5743, 148.6506
449.0564, 128.2625
449.5385, 107.5626
450.0207, 121.5257
450.5028, 73.57459
450.9849, 88.38064
451.4670, 79.09979
451.9491, 81.84860
452.4312, 60.73229
452.9134, 47.88871
453.3955, 60.29807
453.8776, 59.79736
454.3597, 38.61346
454.8418, 46.22124
455.3239, 4.309711
455.8061, 7.146222
456.2882, 29.68244
456.7703, 13.18202
457.2524, 24.68709
457.7345, 26.47854
458.2166, -18.31957
458.6988, 19.79533
459.1809, 23.04117
459.6630, -9.534540
460.1451, 27.83228
460.6272, 1.669394
461.1093, -0.8812702
461.5915, 14.50891
462.0736, 12.60528
462.5557, 39.74345
463.0378, 40.25774
463.5199, 39.02096
464.0020, 49.12422
464.4842, 29.73975
464.9663, 67.03132
465.4484, 66.76794
465.9305, 86.20517
466.4126, 110.6403
466.8947, 102.7726
467.3769, 130.5255
467.8590, 104.7994
468.3411, 125.0859
468.8232, 141.1825
469.3053, 186.9378
469.7874, 164.2346
470.2696, 299.3877
470.7517, 394.2612
471.2338, 465.5784
471.7159, 537.9644
472.1980, 630.5962
472.6801, 743.7695
473.1623, 867.1780
473.6444, 999.7554
474.1265, 1142.942
474.6086, 1298.675
475.0907, 1467.024
475.5728, 1648.401
476.0550, 1839.141
476.5371, 2045.336
477.0192, 2277.078
477.5013, 2535.866
477.9834, 2805.261
478.4655, 3065.275
478.9477, 3331.764
479.4298, 3621.214
479.9119, 3938.602
480.3940, 4284.914
480.8761, 4672.101
481.3582, 5088.707
481.8404, 5497.218
482.3225, 5908.016
482.8046, 6288.974
483.2867, 6640.602
483.7688, 6983.810
484.2509, 7224.178
484.7331, 7366.216
485.2152, 7393.166
485.6973, 7286.009
486.1794, 7011.232
486.6615, 6654.237
487.1436, 6202.006
487.6258, 5674.004
488.1079, 5155.149
488.5900, 4643.658
489.0721, 4154.605
489.5542, 3691.444
490.0363, 3251.843
490.5185, 2864.621
491.0006, 2535.761
491.4827, 2252.592
491.9648, 2013.509
492.4470, 1813.464
492.9291, 1630.082
493.4112, 1462.624
493.8933, 1305.833
494.3754, 1145.656
494.8575, 986.0713
495.3397, 861.2456
495.8218, 807.1089
496.3039, 791.2397
496.7860, 782.3530
497.2681, 778.5391
497.7502, 769.6792
498.2324, 742.4668
498.7145, 709.1987
499.1966, 686.2051
499.6787, 690.0933
500.1608, 693.2954
500.6429, 689.5098
501.1251, 678.4385
501.6072, 659.0278
502.0893, 618.6519
502.5714, 580.9253
503.0535, 558.2104
503.5356, 561.0054
504.0178, 553.9004
504.4999, 535.5537
504.9820, 508.4473
505.4641, 472.5952
505.9462, 424.5854
506.4283, 385.6479
506.9105, 362.5693
507.3926, 351.2095
507.8747, 341.3589
508.3568, 333.9497
508.8389, 326.0571
509.3210, 316.4526
509.8032, 304.9961
510.2853, 289.7666
510.7674, 267.5459
511.2495, 246.9082
511.7316, 239.4189
512.2137, 240.8711
512.6959, 241.4233
513.1780, 231.4741
513.6601, 223.8306
514.1422, 228.5576
514.6243, 244.0723
515.1064, 259.3481
515.5886, 265.3569
516.0707, 273.5410
516.5528, 292.5327
517.0349, 331.7119
517.5170, 364.6479
517.9991, 379.1309
518.4813, 388.7397
518.9634, 410.4922
519.4455, 444.6616
519.9276, 490.6196
520.4097, 550.9819
520.8918, 622.2158
521.3740, 688.2627
521.8561, 744.3730
522.3382, 809.5898
522.8203, 898.4653
523.3024, 1009.707
523.7845, 1134.912
524.2667, 1282.789
524.7488, 1417.318
525.2309, 1476.301
525.7130, 1484.453
526.1951, 1523.654
526.6772, 1632.227
527.1594, 1776.835
527.6415, 1927.994
528.1236, 2082.862
528.6057, 2232.927
529.0878, 2359.857
529.5699, 2487.396
530.0521, 2636.060
530.5342, 2817.267
531.0163, 2985.698
531.4984, 3113.067
531.9805, 3227.932
532.4626, 3361.247
532.9448, 3551.302
533.4269, 3718.389
533.9090, 3843.216
534.3911, 3937.471
534.8732, 4043.863
535.3553, 4177.418
535.8375, 4297.480
536.3196, 4384.592
536.8017, 4439.002
537.2838, 4481.020
537.7659, 4511.861
538.2480, 4527.567
538.7302, 4525.508
539.2123, 4505.309
539.6944, 4463.109
540.1765, 4394.568
540.6586, 4310.150
541.1407, 4219.588
541.6229, 4123.458
542.1050, 4022.646
542.5871, 3915.342
543.0692, 3804.929
543.5513, 3692.229
544.0334, 3578.363
544.5156, 3472.867
544.9977, 3393.157
545.4798, 3316.232
545.9619, 3223.486
546.4440, 3086.792
546.9261, 2970.770
547.4083, 2902.510
547.8904, 2856.502
548.3725, 2785.842
548.8546, 2662.043
549.3367, 2560.081
549.8188, 2503.288
550.3010, 2487.579
550.7831, 2466.288
551.2652, 2438.971
551.7473, 2407.400
552.2294, 2371.581
552.7115, 2331.955
553.1937, 2292.213
553.6758, 2250.845
554.1579, 2216.890
554.6400, 2200.149
555.1221, 2199.785
555.6042, 2214.354
556.0864, 2255.641
556.5685, 2300.930
557.0506, 2321.783
557.5327, 2324.057
558.0148, 2331.562
558.4969, 2352.194
558.9791, 2384.973
559.4612, 2428.505
559.9433, 2481.459
560.4254, 2551.988
560.9075, 2653.222
561.3896, 2765.771
561.8718, 2873.044
562.3539, 2963.562
562.8360, 3066.548
563.3181, 3184.186
563.8002, 3313.545
564.2823, 3447.228
564.7645, 3580.838
565.2466, 3735.362
565.7287, 3919.649
566.2108, 4130.435
566.6929, 4348.428
567.1750, 4571.673
567.6572, 4809.800
568.1393, 5064.684
568.6214, 5337.564
569.1035, 5617.813
569.5856, 5900.259
570.0677, 6213.890
570.5499, 6622.109
571.0320, 7073.488
571.5141, 7488.600
571.9962, 7767.988
572.4783, 8075.559
572.9604, 8488.345
573.4426, 8987.604
573.9247, 9485.004
574.4068, 9940.378
574.8889, 10411.69
575.3710, 10920.85
575.8531, 11467.48
576.3353, 12022.35
576.8174, 12587.87
577.2995, 13150.19
577.7816, 13705.17
578.2637, 14251.12
578.7458, 14783.11
579.2280, 15305.00
579.7101, 15804.28
580.1922, 16257.13
580.6743, 16666.32
581.1564, 17047.67
581.6385, 17462.22
582.1207, 17825.14
582.6028, 18018.38
583.0849, 18047.24
583.5670, 17967.98
584.0491, 17809.68
584.5313, 17558.46
585.0134, 17198.04
585.4955, 16715.28
585.9776, 16163.39
586.4597, 15544.16
586.9418, 14868.06
587.4240, 14151.72
587.9061, 13358.69
588.3882, 12577.89
588.8703, 11814.70
589.3524, 11070.93
589.8345, 10351.23
590.3167, 9655.044
590.7988, 8979.406
591.2809, 8331.946
591.7630, 7710.646
592.2451, 7134.358
592.7272, 6603.246
593.2094, 6113.794
593.6915, 5672.221
594.1736, 5268.409
594.6557, 4879.941
595.1378, 4509.512
595.6199, 4160.265
596.1021, 3837.450
596.5842, 3538.769
597.0663, 3259.801
597.5485, 2997.062
598.0306, 2760.057
598.5127, 2558.387
598.9948, 2387.380
599.4769, 2223.593
599.9590, 2054.276
600.4412, 1902.601
600.9233, 1784.936
601.4054, 1704.484
601.8875, 1593.577
602.3696, 1441.318
602.8517, 1287.211
603.3339, 1171.699
603.8160, 1090.849
604.2981, 1007.080
604.7802, 916.3086
605.2623, 824.3823
605.7444, 736.8628
606.2266, 654.4692
606.7087, 583.8237
607.1908, 532.3477
607.6729, 486.1655
608.1550, 408.7454
608.6371, 415.1180
609.1193, 409.6918
609.6014, 393.1533
610.0835, 330.1382
610.5656, 328.7003
611.0477, 303.5424
611.5298, 278.0694
612.0120, 287.2479
612.4941, 234.5108
612.9762, 244.5217
613.4583, 230.4400
613.9404, 228.3811
614.4225, 202.4530
614.9047, 184.7873
615.3868, 192.3721
615.8689, 187.0384
616.3510, 161.0156
616.8331, 163.7778
617.3152, 117.0159
617.7974, 114.9927
618.2795, 132.6657
618.7616, 111.2945
619.2437, 117.9225
619.7258, 114.8306
620.2079, 65.14350
620.6901, 98.36111
621.1722, 96.70512
621.6543, 59.22074
622.1364, 91.67248
622.6185, 60.58834
623.1006, 53.11011
623.5828, 63.56541
624.0649, 56.72134
624.5470, 78.91299
625.0291, 74.47411
625.5112, 68.27825
625.9933, 73.41532
626.4755, 49.05840
626.9576, 81.37090
627.4397, 76.12318
627.9218, 90.56914
628.4039, 110.0066
628.8860, 97.13480
629.3682, 119.8777
629.8503, 89.13396
630.3324, 104.3983
630.8145, 115.4655
631.2966, 156.1847
631.7787, 128.4394
632.2609, 145.1809
632.7430, 181.2510
633.2251, 191.9109
633.7072, 214.1647
634.1893, 204.8004
634.6714, 226.4643
635.1536, 240.4519
635.6357, 284.0182
636.1178, 305.4537
636.5999, 300.0563
637.0820, 295.4565
637.5641, 343.8382
638.0463, 343.3418
638.5284, 370.2620
639.0105, 370.2505
639.4926, 394.7681
639.9747, 449.8979
640.4568, 482.6936
640.9390, 496.3494
641.4211, 509.6299
641.9032, 546.8591
642.3853, 609.7798
642.8674, 663.2266
643.3495, 678.1694
643.8317, 688.7217
644.3138, 720.1851
644.7959, 794.2715
645.2780, 852.5950
645.7601, 885.3130
646.2422, 910.8252
646.7244, 951.9856
647.2065, 1011.566
647.6886, 1069.066
648.1707, 1120.113
648.6528, 1167.408
649.1349, 1215.469
649.6171, 1264.416
650.0992, 1317.173
650.5813, 1376.324
651.0634, 1440.468
651.5455, 1507.351
652.0276, 1576.611
652.5098, 1645.532
652.9919, 1713.536
653.4740, 1780.742
653.9561, 1846.653
654.4382, 1910.688
654.9203, 1975.877
655.4025, 2044.672
655.8846, 2113.464
656.3667, 2179.604
656.8488, 2243.866
657.3309, 2302.569
657.8130, 2354.834
658.2952, 2403.443
658.7773, 2451.876
659.2594, 2500.363
659.7415, 2549.079
660.2236, 2602.085
660.7057, 2648.721
661.1879, 2672.662
661.6700, 2677.860
662.1521, 2674.032
662.6342, 2660.112
663.1163, 2642.241
663.5984, 2626.685
664.0806, 2612.251
664.5627, 2587.984
665.0448, 2545.858
665.5269, 2498.994
666.0090, 2454.888
666.4911, 2416.125
666.9733, 2361.682
667.4554, 2290.490
667.9375, 2205.752
668.4196, 2103.828
668.9017, 1985.315
669.3839, 1880.566
669.8660, 1793.614
670.3481, 1716.544
670.8302, 1644.649
671.3123, 1575.229
671.7944, 1501.567
672.2766, 1423.174
672.7587, 1342.671
673.2408, 1253.089
673.7229, 1163.242
674.2050, 1088.021
674.6871, 1039.660
675.1693, 996.4885
675.6514, 956.8174
676.1335, 918.2090
676.6156, 867.4187
677.0977, 798.7336
677.5798, 731.6704
678.0620, 677.6592
678.5441, 635.8081
679.0262, 589.9839
679.5083, 538.0774
679.9904, 488.2295
680.4725, 448.4741
680.9547, 416.2598
681.4368, 386.3630
681.9189, 358.6528
682.4010, 329.0896
682.8831, 288.1016
683.3652, 247.1821
683.8474, 219.7202
684.3295, 223.0933
684.8116, 218.3733
685.2937, 191.0437
685.7758, 156.5066
686.2579, 135.1218
686.7401, 132.0925
687.2222, 125.9238
687.7043, 109.5383
688.1864, 91.04150
688.6685, 94.71582
689.1506, 118.9368
689.6328, 137.4500
690.1149, 137.8489
690.5970, 126.1079
691.0791, 104.9761
691.5612, 77.39551
692.0433, 58.62720
692.5255, 66.37183
693.0076, 77.41919
693.4897, 73.84155
693.9718, 52.26050
694.4539, 42.51782
694.9360, 63.47534
695.4182, 83.41284
695.9003, 84.50220
696.3824, 61.85889
696.8645, 39.89478
697.3466, 16.78369
697.8287, 0.8276370
698.3109, 2.309570
698.7930, 9.244385
699.2751, 17.40820
699.7572, 19.13403
700.2393, 17.45996
700.7214, 14.92310
701.2036, 11.23511
701.6857, 5.884277
702.1678, 2.424561
702.6499, 10.97485
703.1320, 20.30151
703.6141, 29.16040
704.0963, 34.28491
704.5784, 34.57202
705.0605, 32.78906
705.5426, 29.22559
706.0247, 24.06958
706.5068, 17.30249
706.9890, 8.409668
707.4711, 2.088867
707.9532, 6.439209
708.4353, 13.90845
708.9174, 1.179199
709.3995, 36.17090
709.8817, 64.51294
710.3638, 62.47534
710.8459, 49.06152
711.3280, 40.84497
711.8101, 40.28125
712.2922, 38.03467
712.7744, 28.74316
713.2565, 18.85864
713.7386, 12.57202
714.2207, 10.92383
714.7028, 10.18457
715.1849, 10.20435
715.6671, 11.34766
716.1492, 13.51685
716.6313, 16.85400
717.1134, 24.99146
717.5955, 41.07666
718.0776, 53.78101
718.5598, 41.77563
719.0419, 17.14624
719.5240, 3.573486
720.0061, 17.79834
720.4882, 34.62012
720.9703, 46.47803
721.4525, 52.29199
721.9346, 49.55713
722.4167, 27.38770
722.8988, 10.10693
723.3809, 0.9934080
723.8630, 0.2268070
724.3452, 11.97412
724.8273, 38.63550
725.3094, 60.44531
725.7915, 67.57812
726.2736, 63.25610
726.7557, 51.43726
727.2379, 33.57739
727.7200, 21.15308
728.2021, 23.04956
728.6842, 32.48096
729.1663, 48.33228
729.6484, 70.81958
730.1306, 81.96045
730.6127, 69.19287
731.0948, 49.47900
731.5769, 30.84009
732.0590, 11.21191
732.5411, 1.377197
733.0233, 3.385254
733.5054, 10.60059
733.9875, 18.50635
734.4696, 26.74902
734.9517, 31.37964
735.4338, 31.19409
735.9160, 32.18481
736.3981, 46.86548
736.8802, 64.62305
737.3623, 68.46021
737.8444, 45.24707
738.3266, 24.30518
738.8087, 13.41846
739.2908, 12.49292
739.7729, 22.66797
740.2551, 56.26294
740.7372, 77.74048
741.2193, 80.63867
741.7014, 71.32910
742.1835, 61.29907
742.6656, 50.56787
743.1478, 42.21924
743.6299, 36.98511
744.1120, 34.86499
744.5941, 36.92700
745.0762, 42.26636
745.5583, 48.11841
746.0405, 54.88135
746.5226, 60.09106
747.0047, 58.03687
747.4868, 51.46240
747.9689, 56.77954
748.4510, 91.64282
748.9332, 118.0603
749.4153, 121.8748
749.8974, 105.1733
750.3795, 92.66919
750.8616, 84.60962
751.3438, 78.97998
751.8259, 72.10962
752.3080, 67.06641
752.7901, 75.76831
753.2722, 97.21094
753.7543, 114.1238
754.2365, 109.2129
754.7186, 98.56079
755.2007, 97.18896
755.6828, 109.8193
756.1649, 112.4407
756.6470, 88.54639
757.1292, 65.57666
757.6113, 60.91968
758.0934, 79.07959
758.5755, 95.75659
759.0576, 112.7168
759.5397, 122.7231
760.0219, 109.3169
760.5040, 82.46851
760.9861, 77.08667
761.4682, 102.1204
761.9503, 128.8489
762.4324, 134.9653
762.9146, 129.6904
763.3967, 124.5144
763.8788, 121.8994
764.3609, 120.5281
764.8430, 120.4148
765.3251, 121.3430
765.8073, 123.2385
766.2894, 127.0701
766.7715, 127.5781
767.2536, 122.0205
767.7357, 116.0686
768.2178, 123.2515
768.7000, 139.7395
769.1821, 149.5540
769.6642, 144.3088
770.1463, 136.2493
770.6284, 137.1667
771.1105, 142.5217
771.5927, 143.6755
772.0748, 130.7480
772.5569, 122.1382
773.0390, 125.0281
773.5211, 134.6699
774.0032, 138.1262
774.4854, 132.6511
774.9675, 132.1614
775.4496, 143.6294
775.9317, 160.3005
776.4138, 161.9287
776.8959, 151.3513
777.3781, 145.8408
777.8602, 158.8459
778.3423, 178.5894
778.8244, 196.1797
779.3065, 212.0408
779.7886, 228.8757
780.2708, 248.0022
780.7529, 267.1191
781.2350, 284.8857
781.7171, 302.0869
782.1992, 325.0371
782.6813, 355.1030
783.1635, 384.6475
783.6456, 408.2212
784.1277, 428.1526
784.6098, 453.0713
785.0919, 482.5557
785.5740, 514.3557
786.0562, 549.6277
786.5383, 585.6362
787.0204, 619.6738
787.5025, 651.8638
787.9846, 683.3933
788.4667, 715.0125
788.9489, 745.1855
789.4310, 775.5898
789.9131, 806.6580
790.3952, 823.0190
790.8773, 823.5513
791.3594, 815.3521
791.8416, 801.8298
792.3237, 783.7273
792.8058, 763.8616
793.2879, 742.0996
793.7700, 714.8472
794.2521, 674.7637
794.7343, 631.5327
795.2164, 594.7061
795.6985, 567.4072
796.1806, 533.7590
796.6627, 490.5061
797.1448, 442.5151
797.6270, 389.9858
798.1091, 330.5120
798.5912, 289.8184
799.0733, 269.6819
799.5554, 256.8174
800.0375, 240.8589
800.5197, 222.4309
801.0018, 201.8638
801.4839, 178.9360
801.9660, 157.2930
802.4481, 139.2393
802.9302, 123.4448
803.4124, 108.2571
803.8945, 90.27246
804.3766, 81.54443
804.8587, 88.06982
805.3408, 95.76709
805.8229, 88.96729
806.3051, 67.97852
806.7872, 58.89258
807.2693, 65.44482
807.7514, 73.85596
808.2335, 68.93286
808.7156, 57.08130
809.1978, 48.17847
809.6799, 45.26245
810.1620, 42.00781
810.6441, 31.90088
811.1262, 22.60303
811.6083, 21.96387
812.0905, 34.61401
812.5726, 46.23779
813.0547, 59.15942
813.5368, 65.97949
814.0189, 51.33691
814.5010, 20.13525
814.9832, 4.110352
815.4653, 11.19019
815.9474, 20.87939
816.4295, 14.05493
816.9116, 1.297607
817.3937, 15.79077
817.8759, 28.89624
818.3580, 37.70996
818.8401, 42.82031
819.3222, 42.12085
819.8043, 31.74463
820.2864, 8.622559
820.7686, 9.731445
821.2507, 21.62598
821.7328, 28.46118
822.2149, 30.61621
822.6970, 29.03589
823.1791, 24.95874
823.6613, 16.69629
824.1434, 12.69678
824.6255, 21.65576
825.1076, 36.50635
825.5897, 49.33032
826.0718, 63.56909
826.5540, 68.18726
827.0361, 59.81274
827.5182, 45.85986
828.0003, 33.40186
828.4824, 22.56030
828.9645, 16.96582
829.4467, 17.56665
829.9288, 22.90503
830.4109, 31.59302
830.8930, 44.84082
831.3751, 67.12939
831.8572, 109.5945
832.3394, 137.9673
832.8215, 125.7981
833.3036, 101.2561
833.7857, 97.30859
834.2678, 125.7500
834.7499, 138.9832
835.2321, 130.5613
835.7142, 114.8447
836.1963, 108.7271
836.6784, 110.4739
837.1605, 113.4231
837.6426, 115.6636
838.1248, 121.5854
838.6069, 137.5247
839.0890, 157.6758
839.5711, 175.9385
840.0532, 195.3933
840.5353, 203.9651
841.0175, 196.2407
841.4996, 183.0073
841.9817, 173.5796
842.4638, 166.9812
842.9459, 170.0508
843.4280, 184.9070
843.9102, 205.3237
844.3923, 230.6741
844.8744, 254.9492
845.3565, 266.0781
845.8386, 257.5237
846.3207, 252.0632
846.8029, 263.0930
847.2850, 278.5405
847.7671, 286.9211
848.2492, 281.3245
848.7313, 290.1079
849.2134, 319.8052
849.6956, 346.9248
850.1777, 341.7632
850.6598, 314.1807
851.1419, 300.6951
851.6240, 306.9441
852.1061, 313.1294
852.5883, 299.0596
853.0704, 281.0911
853.5525, 275.2417
854.0346, 289.2222
854.5167, 299.1370
854.9988, 305.4338
855.4810, 305.1990
855.9631, 292.1226
856.4452, 265.7244
856.9273, 257.1951
857.4094, 268.7385
857.8915, 279.6052
858.3737, 268.0095
858.8558, 246.2898
859.3379, 231.8850
859.8200, 227.9250
860.3021, 221.8311
860.7842, 203.2590
861.2664, 186.3423
861.7485, 180.9446
862.2306, 189.0603
862.7127, 185.7251
863.1948, 167.5415
863.6769, 152.6379
864.1591, 163.3770
864.6412, 184.7993
865.1233, 175.1675
865.6054, 135.9512
866.0875, 103.6936
866.5696, 106.9382
867.0518, 117.6626
867.5339, 118.1877
868.0160, 106.6719
868.4981, 97.54419
868.9802, 89.38428
869.4623, 88.21558
869.9445, 100.6475
870.4266, 119.9902
870.9087, 116.1538
871.3908, 91.32080
871.8729, 68.29321
872.3550, 62.98511
872.8372, 62.88232
873.3193, 57.15723
873.8014, 47.12231
874.2835, 41.59253
874.7656, 48.99878
875.2477, 52.97949
875.7299, 45.78760
876.2120, 31.84985
876.6941, 38.83105
877.1762, 68.01001
877.6583, 85.15137
878.1404, 68.03320
878.6226, 41.42236
879.1047, 43.36182
879.5869, 61.92871
880.0690, 71.52271
880.5511, 53.43018
881.0332, 33.96606
881.5153, 18.11133
881.9974, 7.330566
882.4796, 15.83179
882.9617, 49.35864
883.4438, 66.42334
883.9259, 51.62183
884.4080, 25.89209
884.8901, 28.78931
885.3723, 48.09424
885.8544, 52.55273
886.3365, 16.38647
886.8186, 11.14038
887.3007, 5.828613
887.7828, 38.71680
888.2650, 45.97632
888.7471, 13.27246
889.2292, 7.038330
889.7113, 9.099365
890.1934, 2.673340
890.6755, 4.1992001E-02
891.1577, 0.8457030
891.6398, 7.928467
892.1219, 24.71802
892.6040, 38.47559
893.0861, 38.13721
893.5682, 31.09448
894.0504, 23.00122
894.5325, 12.10474
895.0146, 8.235596
895.4967, 14.49194
895.9788, 22.02759
896.4609, 20.59912
896.9431, 13.39209
897.4252, 14.44653
897.9073, 24.60522
898.3894, 29.75610
898.8715, 7.944824
899.3536, 14.09058
899.8358, 12.55420
900.3179, 15.83545
900.8000, 38.75586
901.2821, 52.79980
901.7642, 61.57251
902.2463, 67.77295
902.7285, 70.52295
903.2106, 59.46997
903.6927, 35.95801
904.1748, 18.06104
904.6569, 21.05298
905.1390, 30.83569
905.6212, 30.52173
906.1033, 22.56030
906.5854, 18.38501
907.0675, 22.21924
907.5496, 26.57544
908.0317, 29.88037
908.5139, 33.06958
908.9960, 40.00586
909.4781, 50.67969
909.9602, 54.03027
910.4423, 42.56104
910.9244, 27.77344
911.4066, 24.72827
911.8887, 29.00928
912.3708, 31.21240
912.8529, 23.11792
913.3350, 20.16187
913.8171, 33.06006
914.2993, 48.43823
914.7814, 43.17822
915.2635, 13.99219
915.7456, 1.815430
916.2277, 2.948975
916.7098, 15.71899
917.1920, 19.69434
917.6741, 21.54810
918.1562, 34.24585
918.6383, 67.07007
919.1204, 85.84058
919.6025, 66.42212
920.0847, 40.49292
920.5668, 29.52856
921.0489, 36.18970
921.5310, 39.57397
922.0131, 39.83472
922.4952, 36.89233
922.9774, 23.97729
923.4595, 8.719238
923.9416, 1.888672
924.4237, 4.010498
924.9058, 10.11279
925.3879, 29.98413
925.8701, 41.55566
926.3522, 29.36963
926.8343, 0.8225100
927.3164, 0.1420900
927.7985, 35.77832
928.2806, 62.33081
928.7628, 50.85889
929.2449, 25.81274
929.7270, 25.96533
930.2091, 44.43213
930.6912, 63.17285
931.1733, 87.65112
931.6555, 95.85083
932.1376, 65.90771
932.6197, 22.38306
933.1018, 8.260986
933.5839, 28.15234
934.0660, 39.28052
934.5482, 4.730713
935.0303, 31.01880
935.5124, 45.12695
935.9945, 48.18945
936.4766, 7.472168
936.9587, 23.24878
937.4409, 16.36133
937.9230, 8.527100
938.4051, 32.20435
938.8872, 2.237305
939.3693, 20.88257
939.8514, 20.94458
940.3336, 31.54956
940.8157, 19.38208
941.2978, 14.23828
941.7799, 31.87183
942.2620, 36.87012
942.7441, 22.01978
943.2263, 33.23633
943.7084, 29.32056
944.1905, 45.77026
944.6726, 52.87817
945.1547, 51.86646
945.6368, 43.78442
946.1190, 27.84717
946.6011, 16.03442
947.0832, 14.81543
947.5653, 19.20508
948.0474, 26.04541
948.5295, 32.98145
949.0117, 34.79321
949.4938, 17.12500
949.9759, 11.25073
950.4580, 33.23096
950.9401, 61.78784
951.4222, 61.27954
951.9044, 31.12183
952.3865, 5.611572
952.8686, 11.40723
953.3507, 14.84521
953.8328, 14.86304
954.3149, 54.61597
954.7971, 75.05786
955.2792, 67.05933
955.7613, 51.00781
956.2434, 20.42358
956.7255, 5.487793
957.2076, 13.94604
957.6898, 4.810303
958.1719, 3.889893
958.6540, 11.71289
959.1361, 16.44214
959.6182, 16.99316
960.1003, 13.62573
960.5825, 0.2885740
961.0646, 19.11816
961.5467, 21.31152
962.0288, 18.61914
962.5109, 43.41382
962.9930, 34.22070
963.4752, 5.882324
963.9573, 6.807129
964.4394, 5.185059
964.9215, 3.153320
965.4036, 19.91211
965.8857, 34.12476
966.3679, 35.90747
966.8500, 30.34961
967.3321, 24.02612
967.8142, 18.60913
968.2963, 10.07080
968.7784, 4.744141
969.2606, 16.35986
969.7427, 8.801025
970.2248, 10.24951
970.7069, 9.348389
971.1890, 13.58374
971.6711, 34.34424
972.1533, 41.40112
972.6354, 37.32080
973.1175, 17.48145
973.5996, 16.53906
974.0817, 33.72266
974.5638, 30.61963
975.0460, 22.40820
975.5281, 12.03076
976.0102, 3.885254
976.4923, 9.195801
976.9744, 24.53809
977.4565, 40.11572
977.9387, 63.97559
978.4208, 72.80029
978.9029, 42.74707
979.3850, 0.5063480
979.8671, 16.41504
980.3492, 2.728516
980.8314, 4.248535
981.3135, 1.565430
981.7956, 6.393555
982.2777, 15.34814
982.7598, 43.95605
983.2419, 46.96729
983.7241, 15.59766
984.2062, 9.424805
984.6883, 8.241699
985.1704, 6.842285
985.6525, 19.04834
986.1346, 43.10645
986.6168, 49.54980
987.0989, 39.01562
987.5810, 26.46777
988.0631, 20.00146
988.5452, 15.70312
989.0273, 8.656738
989.5095, 0.9340820
989.9916, 1.872070
990.4737, 4.762695
990.9558, 12.71387
991.4379, 22.08984
991.9200, 28.48584
992.4022, 22.16553
992.8843, 4.703613
993.3664, 8.211914
993.8485, 13.33936
994.3306, 14.19727
994.8127, 8.890625
995.2949, 5.855469
995.7770, 16.34717
996.2591, 45.29688
996.7412, 55.98047
997.2233, 43.09668
997.7054, 41.46973
998.1876, 88.11719
998.6697, 154.9121
999.1518, 177.5977
999.6339, 165.8560
1000.116, 155.8438
1000.598, 171.4048
1001.080, 182.5562
1001.562, 171.5078
1002.044, 152.6162
1002.527, 154.9653
1003.009, 180.8379
1003.491, 189.7236
1003.973, 168.4385
1004.455, 151.8125
1004.937, 189.5215
1005.419, 250.3755
1005.901, 295.5166
1006.384, 316.3931
1006.866, 326.8726
1007.348, 326.0103
1007.830, 319.4746
1008.312, 308.2485
1008.794, 293.8950
1009.276, 294.8604
1009.758, 308.0054
1010.240, 306.9780
1010.723, 262.4033
1011.205, 213.4194
1011.687, 188.5571
1012.169, 178.1904
1012.651, 157.6064
1013.133, 120.0825
1013.615, 89.98877
1014.097, 71.15820
1014.580, 58.85791
1015.062, 49.85547
1015.544, 45.45166
1016.026, 46.70459
1016.508, 54.28955
1016.990, 63.24561
1017.472, 77.35645
1017.954, 86.25000
1018.436, 82.07959
1018.919, 64.98682
1019.401, 48.57568
1019.883, 34.97363
1020.365, 33.86133
1020.847, 68.00000
1021.329, 104.2734
1021.811, 99.85596
1022.293, 72.83838
1022.776, 66.84912
1023.258, 111.3242
1023.740, 140.7041
1024.222, 145.3799
1024.704, 138.4453
1025.186, 135.6255
1025.668, 136.2461
1026.150, 136.3179
1026.632, 134.0811
1027.115, 138.9849
1027.597, 166.2002
1028.079, 197.1372
1028.561, 217.8857
1029.043, 227.7158
1029.525, 234.5742
1030.007, 237.3594
1030.489, 254.3335
1030.972, 307.9624
1031.454, 365.9507
1031.936, 371.0532
1032.418, 346.6470
1032.900, 342.6470
1033.382, 392.6738
1033.864, 439.8652
1034.346, 478.9854
1034.828, 512.1626
1035.311, 535.2144
1035.793, 552.0825
1036.275, 590.0347
1036.757, 651.7046
1037.239, 717.2925
1037.721, 768.3911
1038.203, 822.4648
1038.685, 891.3491
1039.167, 973.4722
1039.650, 1054.538
1040.132, 1134.223
1040.614, 1211.955
1041.096, 1279.287
1041.578, 1355.688
1042.060, 1477.804
1042.542, 1628.318
1043.024, 1774.158
1043.507, 1886.147
1043.989, 2027.502
1044.471, 2220.130
1044.953, 2437.549
1045.435, 2658.970
1045.917, 2885.083
1046.399, 3142.176
1046.881, 3430.207
1047.364, 3754.110
1047.846, 4104.273
1048.328, 4503.042
1048.810, 4971.821
1049.292, 5506.311
1049.774, 6067.576
1050.256, 6643.898
1050.738, 7290.771
1051.220, 8021.359
1051.703, 8816.729
1052.185, 9616.821
1052.667, 10452.06
1053.149, 11374.92
1053.631, 12406.79
1054.113, 13473.39
1054.595, 14549.21
1055.077, 15666.31
1055.559, 16866.22
1056.042, 18121.66
1056.524, 19330.11
1057.006, 20488.01
1057.488, 21566.29
1057.970, 22650.21
1058.452, 23544.61
1058.934, 24184.25
1059.416, 24531.53
1059.899, 24547.34
1060.381, 24230.72
1060.863, 23605.71
1061.345, 22646.73
1061.827, 21483.41
1062.309, 20169.64
1062.791, 18758.42
1063.273, 17314.47
1063.755, 15836.06
1064.238, 14444.87
1064.720, 13149.46
1065.202, 11960.10
1065.684, 10898.49
1066.166, 9946.643
1066.648, 9061.652
1067.130, 8259.531
1067.612, 7548.591
1068.094, 6946.514
1068.577, 6402.543
1069.059, 5885.450
1069.541, 5407.860
1070.023, 4969.598
1070.505, 4563.404
1070.987, 4232.294
1071.469, 3978.361
1071.951, 3739.119
1072.434, 3445.695
1072.916, 3158.355
1073.398, 2956.255
1073.880, 2819.476
1074.362, 2676.511
1074.844, 2485.679
1075.326, 2330.305
1075.808, 2229.543
1076.291, 2149.146
1076.773, 2035.335
1077.255, 1902.200
1077.737, 1793.721
1078.219, 1718.312
1078.701, 1652.115
1079.183, 1583.174
1079.665, 1520.478
1080.147, 1467.896
1080.630, 1425.409
1081.112, 1395.069
1081.594, 1376.323
1082.076, 1350.328
1082.558, 1301.058
1083.040, 1260.099
1083.522, 1262.449
1084.004, 1285.938
1084.486, 1302.335
1084.969, 1308.309
1085.451, 1311.104
1085.933, 1309.973
1086.415, 1302.659
1086.897, 1281.731
1087.379, 1257.024
1087.861, 1250.280
1088.343, 1257.450
1088.826, 1258.593
1089.308, 1260.116
1089.790, 1236.273
1090.272, 1167.029
1090.754, 1082.657
1091.236, 1043.005
1091.718, 1036.021
1092.200, 998.4502
1092.682, 919.0737
1093.165, 840.5464
1093.647, 788.7148
1094.129, 749.9199
1094.611, 711.8506
1095.093, 672.0464
1095.575, 638.4077
1096.057, 611.4878
1096.539, 574.9575
1097.022, 517.4082
1097.504, 460.3721
1097.986, 425.6260
1098.468, 405.1787
1098.950, 389.3193
1099.432, 376.4014
1099.914, 369.8052
1100.396, 373.2007
1100.879, 371.4175
1101.361, 341.8452
1101.843, 304.9199
1102.325, 306.8403
1102.807, 337.9824
1103.289, 361.0122
1103.771, 357.2095
1104.253, 349.4712
1104.735, 337.4873
1105.218, 329.9834
1105.700, 340.9951
1106.182, 365.7690
1106.664, 382.2231
1107.146, 387.9775
1107.628, 403.5405
1108.110, 459.5723
1108.592, 510.9424
1109.074, 525.9609
1109.557, 515.5957
1110.039, 521.1035
1110.521, 542.8452
1111.003, 580.1284
1111.485, 632.6953
1111.967, 682.0630
1112.449, 707.6182
1112.931, 723.2100
1113.414, 745.0928
1113.896, 778.8340
1114.378, 801.6597
1114.860, 817.2905
1115.342, 805.2925
1115.824, 744.9375
1116.306, 657.7979
1116.788, 563.6011
1117.271, 471.7397
1117.753, 401.8652
1118.235, 373.5508
1118.717, 349.7241
1119.199, 327.7529
1119.681, 309.0400
1120.163, 302.2773
1120.645, 298.8545
1121.127, 264.9912
1121.609, 203.8784
1122.092, 157.5039
1122.574, 155.6177
1123.056, 163.4546
1123.538, 176.7686
1124.020, 185.9194
1124.502, 163.0142
1124.984, 113.8389
1125.466, 92.08154
1125.949, 111.1836
1126.431, 127.0327
1126.913, 106.1074
1127.395, 73.45020
1127.877, 39.95557
1128.359, 7.826660
1128.841, 3.411621
1129.323, 29.53125
1129.806, 48.00586
1130.288, 42.56250
1130.770, 29.12305
1131.252, 20.66113
1131.734, 15.30811
1132.216, 10.10498
1132.698, 2.420898
1133.180, 5.548340
1133.662, 23.26025
1134.145, 35.74316
1134.627, 26.25635
1135.109, 6.622559
1135.591, 10.56738
1136.073, 22.36133
1136.555, 21.31348
1137.037, 14.42480
1137.519, 34.15088
1138.001, 31.65576
1138.484, 20.45264
1138.966, 13.74023
1139.448, 8.842773
1139.930, 2.966309
1140.412, 21.13721
1140.894, 35.39893
1141.376, 37.04443
1141.858, 40.72852
1142.341, 53.75537
1142.823, 67.36182
1143.305, 64.13623
1143.787, 46.92090
1144.269, 27.11719
1144.751, 5.987793
1145.233, 10.08545
1145.715, 24.54395
1146.198, 24.31445
1146.680, 5.888184
1147.162, 54.77490
1147.644, 64.14795
1148.126, 36.78662
1148.608, 10.38281
1149.090, 3.939941
1149.572, 12.82373
1150.054, 26.67822
1150.536, 33.30371
1151.019, 13.43066
1151.501, 37.63330
1151.983, 38.09424
1152.465, 14.38184
1152.947, 59.51074
1153.429, 61.17139
1153.911, 44.81982
1154.393, 23.13721
1154.876, 3.900879
1155.358, 3.343750
1155.840, 32.08936
1156.322, 46.99902
1156.804, 46.07617
1157.286, 38.09082
1157.768, 24.14746
1158.250, 11.32129
1158.733, 10.70215
1159.215, 19.40186
1159.697, 26.38086
1160.179, 31.47900
1160.661, 33.04932
1161.143, 30.78076
1161.625, 25.31250
1162.107, 11.78955
1162.589, 2.083008
1163.072, 2.436523
1163.554, 11.50391
1164.036, 31.44434
1164.518, 66.54492
1165.000, 87.47070
1165.482, 83.18457
1165.964, 67.57715
1166.446, 75.78320
1166.928, 92.78467
1167.411, 76.93750
1167.893, 13.27148
1168.375, 28.18555
1168.857, 6.286133
1169.339, 18.92578
1169.821, 23.51758
1170.303, 16.72314
1170.785, 27.23193
1171.268, 49.66211
1171.750, 67.08545
1172.232, 74.33838
1172.714, 75.35986
1173.196, 69.75781
1173.678, 59.91846
1174.160, 46.32764
1174.642, 27.40674
1175.125, 16.90723
1175.607, 14.29199
1176.089, 14.68311
1176.571, 16.93945
1177.053, 20.08936
1177.535, 20.20068
1178.017, 23.84375
1178.499, 42.39648
1178.981, 75.59521
1179.464, 79.39795
1179.946, 55.29736
1180.428, 33.28613
1180.910, 35.03857
1181.392, 40.67090
1181.874, 39.42920
1182.356, 35.36719
1182.838, 36.63330
1183.320, 43.81104
1183.803, 39.32910
1184.285, 21.10400
1184.767, 6.411621
1185.249, 3.467773
1185.731, 13.01074
1186.213, 49.92139
1186.695, 97.68359
1187.177, 106.4351
1187.660, 72.71924
1188.142, 54.90283
1188.624, 64.12793
1189.106, 77.24268
1189.588, 74.95068
1190.070, 67.19824
1190.552, 61.28760
1191.034, 57.40576
1191.516, 53.75439
1191.999, 50.46680
1192.481, 44.30908
1192.963, 31.99316
1193.445, 25.58057
1193.927, 50.07666
1194.409, 77.80811
1194.891, 74.58594
1195.373, 36.88232
1195.855, 26.48096
1196.338, 46.62695
1196.820, 65.62549
1197.302, 69.90967
1197.784, 70.04150
1198.266, 78.59570
1198.748, 88.32227
1199.230, 90.58740
1199.712, 83.88525
1200.195, 70.87012
1200.677, 50.12354
1201.159, 33.83447
1201.641, 31.44824
1202.123, 33.95117
1202.605, 29.96680
1203.087, 23.45459
1203.569, 22.12695
1204.052, 29.12500
1204.534, 34.41016
1205.016, 36.18311
1205.498, 33.07959
1205.980, 19.38477
1206.462, 5.826172
1206.944, 5.615723
1207.426, 13.55859
1207.908, 18.98340
1208.391, 19.23828
1208.873, 22.20215
1209.355, 26.50977
1209.837, 29.82227
1210.319, 26.87891
1210.801, 23.67383
1211.283, 34.84570
1211.765, 54.43994
1212.247, 58.50146
1212.730, 36.67822
1213.212, 28.28711
1213.694, 39.36084
1214.176, 55.90332
1214.658, 73.98389
1215.140, 83.57715
1215.622, 59.16602
1216.104, 11.18457
1216.587, 7.713867
1217.069, 72.77246
1217.551, 108.4336
1218.033, 95.69434
1218.515, 64.38770
1218.997, 34.06006
1219.479, 12.76025
1219.961, 15.50781
1220.443, 40.25098
1220.926, 51.02588
1221.408, 45.07178
1221.890, 31.72363
1222.372, 9.813965
1222.854, 7.024902
1223.336, 1.603516
1223.818, 21.69873
1224.300, 39.50098
1224.782, 53.18115
1225.265, 58.36670
1225.747, 53.01221
1226.229, 46.22461
1226.711, 46.30518
1227.193, 47.24707
1227.675, 36.70654
1228.157, 23.93604
1228.639, 21.89307
1229.122, 32.86230
1229.604, 42.68848
1230.086, 53.24707
1230.568, 48.02979
1231.050, 10.18799
1231.532, 23.93408
1232.014, 0.5229490
1232.496, 46.22754
1232.979, 64.49951
1233.461, 49.23730
1233.943, 39.16602
1234.425, 34.44580
1234.907, 35.21729
1235.389, 44.85156
1235.871, 54.41309
1236.353, 57.28516
1236.835, 53.60742
1237.318, 41.50586
1237.800, 18.86523
1238.282, 7.467285
1238.764, 8.187012
1239.246, 14.25879
1239.728, 26.41162
1240.210, 36.05859
1240.692, 25.48975
1241.175, 13.59863
1241.657, 29.95850
1242.139, 83.75684
1242.621, 98.91064
1243.103, 75.71973
1243.585, 54.19580
1244.067, 61.03174
1244.549, 74.96973
1245.031, 87.74512
1245.514, 95.88086
1245.996, 93.34668
1246.478, 78.53857
1246.960, 76.26514
1247.442, 86.35889
1247.924, 97.10596
1248.406, 106.2905
1248.888, 107.8867
1249.370, 96.14502
1249.853, 75.79492
1250.335, 48.35986
1250.817, 14.67188
1251.299, 1.485352
1251.781, 9.860352
1252.263, 23.60107
1252.745, 40.47217
1253.227, 51.50879
1253.710, 47.69971
1254.192, 40.98730
1254.674, 51.00830
1255.156, 73.72119
1255.638, 77.45117
1256.120, 61.60449
1256.602, 45.85059
1257.084, 42.17627
1257.567, 37.91895
1258.049, 25.18506
1258.531, 13.12158
1259.013, 16.54492
1259.495, 33.52441
1259.977, 62.49805
1260.459, 100.3535
1260.941, 117.2954
1261.423, 80.27441
1261.906, 45.07910
1262.388, 19.83398
1262.870, 10.06641
1263.352, 35.88281
1263.834, 79.52686
1264.316, 98.51709
1264.798, 89.71338
1265.280, 76.46387
1265.762, 63.45654
1266.245, 53.22363
1266.727, 44.43701
1267.209, 40.03027
1267.691, 43.90820
1268.173, 49.91211
1268.655, 47.37939
1269.137, 36.14111
1269.619, 30.01758
1270.102, 33.91211
1270.584, 34.52344
1271.066, 23.85010
1271.548, 17.21240
1272.030, 16.25195
1272.512, 14.60742
1272.994, 41.63135
1273.476, 57.24561
1273.958, 61.81641
1274.441, 21.87012
1274.923, 38.32520
1275.405, 32.69092
1275.887, 25.81885
1276.369, 50.92139
1276.851, 18.10400
1277.333, 42.90869
1277.815, 44.71094
1278.297, 57.02979
1278.780, 48.62402
1279.262, 52.73975
1279.744, 37.48828
1280.226, 21.16162
1280.708, 13.12109
1281.190, 13.95410
1281.672, 32.50342
1282.154, 60.03125
1282.637, 63.88037
1283.119, 46.97168
1283.601, 36.73193
1284.083, 39.78906
1284.565, 42.45703
1285.047, 35.40137
1285.529, 28.89453
1286.011, 27.80029
1286.494, 29.86670
1286.976, 30.45703
1287.458, 30.07617
1287.940, 26.80469
1288.422, 20.15771
1288.904, 12.26270
1289.386, 5.703613
1289.868, 9.802734
1290.350, 14.21826
1290.833, 47.57080
1291.315, 47.73145
1291.797, 30.33154
1292.279, 26.31494
1292.761, 42.60938
1293.243, 55.85693
1293.725, 64.05615
1294.207, 67.43652
1294.689, 66.44531
1295.172, 58.90771
1295.654, 28.56055
1296.136, 3.113281
1296.618, 3.401367
1297.100, 35.66846
1297.582, 54.04102
1298.064, 48.51270
1298.546, 42.61914
1299.029, 43.70117
1299.511, 47.30615
1299.993, 43.43994
1300.475, 40.96094
1300.957, 61.03711
1301.439, 93.50586
1301.921, 100.9395
1302.403, 83.82275
1302.885, 61.16309
1303.368, 31.71582
1303.850, 10.90088
1304.332, 19.20947
1304.814, 32.36230
1305.296, 38.29346
1305.778, 38.53418
1306.260, 33.67529
1306.742, 25.87012
1307.224, 26.34375
1307.707, 42.54346
1308.189, 49.06396
1308.671, 17.62695
1309.153, 0.2343750
1309.635, 19.57812
1310.117, 0.0000000E+00
##END=



