##NAMES=Fluorapophyllite-(K)
##RRUFFID=R050084
##IDEAL CHEMISTRY=KCa_4_Si_8_O_20_F&#183;8H_2_O
##LOCALITY=near Ahmednagar, Maharashtra, India
##OWNER=RRUFF
##SOURCE=Rock Currier
##DESCRIPTION=Greenish-white prismatic single crystal associated with scolecite
##STATUS=The identification of this mineral has been confirmed by X-ray diffraction and chemical analysis
##URL=rruff.info/R050084
##MEASURED CHEMISTRY=(K_0.98_Na_0.02_)Ca_4.00_Si_8.00_O_20_F_1.00_Â·8H_2_O
97.554, 0.000
98.947, 7.721
100.340, 607.967
101.732, 2190.132
103.124, 4874.466
104.516, 8158.755
105.908, 10103.713
107.300, 8654.053
108.691, 5357.379
110.082, 2916.927
111.473, 1076.161
112.864, 142.089
114.254, 31.548
115.644, 194.080
117.034, 768.864
118.424, 954.944
119.813, 1073.111
121.203, 1975.314
122.592, 2210.275
123.981, 2061.569
125.369, 1627.946
126.758, 1455.253
128.146, 1754.108
129.534, 2153.794
130.922, 3214.564
132.309, 3257.658
133.696, 2796.172
135.083, 2295.023
136.470, 2568.684
137.857, 2581.484
139.243, 3186.604
140.630, 3688.193
142.016, 3909.410
143.401, 3385.497
144.787, 2638.140
146.172, 1942.326
147.557, 1182.110
148.942, 761.535
150.327, 571.636
151.711, 415.441
153.096, 495.991
154.480, 720.313
155.863, 1234.423
157.247, 1800.334
158.630, 2760.027
160.013, 3268.480
161.396, 3490.723
162.779, 3159.980
164.161, 2577.528
165.544, 1898.992
166.926, 1157.226
168.308, 519.231
169.689, 36.565
171.070, 261.055
172.452, 428.029
173.833, 402.862
175.213, 221.099
176.594, 96.062
177.974, 549.825
179.354, 916.347
180.734, 1782.499
182.114, 2536.240
183.493, 3385.000
184.872, 3746.886
186.251, 3151.613
187.630, 2579.838
189.008, 2011.779
190.387, 1851.158
191.765, 1847.696
193.143, 1860.372
194.520, 2227.183
195.898, 2407.127
197.275, 2933.191
198.652, 3357.349
200.029, 4220.557
201.405, 5113.772
202.782, 6680.997
204.158, 8818.295
205.534, 11872.735
206.909, 14695.358
208.285, 16433.154
209.660, 16781.980
211.035, 15241.779
212.410, 12488.556
213.784, 9899.302
215.159, 7822.027
216.533, 6404.701
217.907, 5442.818
219.281, 4650.188
220.654, 4178.324
222.027, 4148.438
223.400, 4462.664
224.773, 4688.305
226.146, 5271.807
227.518, 5315.189
228.891, 5355.785
230.263, 5013.852
231.634, 4446.146
233.006, 3642.492
234.377, 2719.896
235.748, 2272.270
237.119, 1555.616
238.490, 1141.936
239.860, 905.563
241.231, 514.101
242.601, 492.396
243.970, 237.502
245.340, 282.524
246.709, 128.617
248.079, 3.000
249.448, 73.051
250.816, 219.107
252.185, 91.410
253.553, 59.999
254.921, 119.389
256.289, 37.076
257.657, 156.771
259.024, 125.881
260.391, 35.793
261.758, 311.213
263.125, 188.180
264.492, 399.094
265.858, 570.824
267.224, 481.975
268.590, 495.383
269.956, 261.941
271.321, 375.572
272.687, 280.223
274.052, 209.828
275.416, 107.352
276.781, 380.766
278.146, 399.072
279.510, 218.270
280.874, 707.346
282.237, 634.188
283.601, 939.775
284.964, 934.135
286.327, 1211.285
287.690, 1677.244
289.053, 2049.801
290.416, 2652.609
291.778, 3690.445
293.140, 4333.766
294.502, 5262.316
295.863, 5786.057
297.225, 6039.090
298.586, 5804.297
299.947, 5067.881
301.308, 4339.291
302.668, 3321.467
304.029, 2604.252
305.389, 2255.756
306.749, 1777.766
308.108, 1462.910
309.468, 1298.342
310.827, 984.367
312.186, 875.475
313.545, 629.633
314.903, 801.631
316.262, 813.447
317.620, 716.426
318.978, 897.855
320.336, 853.975
321.693, 851.996
323.051, 977.426
324.408, 1217.809
325.765, 1139.152
327.121, 1612.453
328.478, 1505.068
329.834, 1680.535
331.190, 2023.855
332.546, 2370.275
333.902, 2471.109
335.257, 2942.326
336.612, 2768.973
337.967, 2726.439
339.322, 2545.654
340.677, 2009.654
342.031, 1845.666
343.385, 1379.459
344.739, 1161.400
346.093, 789.980
347.446, 492.543
348.799, 373.066
350.153, 365.539
351.505, 154.953
352.858, 124.318
354.210, 17.346
355.563, 91.938
356.915, 59.812
358.267, 35.375
359.618, 47.521
360.969, 70.631
362.321, 164.703
363.672, 139.738
365.022, 403.744
366.373, 417.719
367.723, 564.664
369.073, 986.582
370.423, 1135.469
371.773, 1411.328
373.122, 1370.152
374.471, 1181.949
375.821, 1228.717
377.169, 576.449
378.518, 664.170
379.866, 209.855
381.215, 208.512
382.563, 282.139
383.910, 132.742
385.258, 42.684
386.605, 63.840
387.952, 129.324
389.299, 2.787
390.646, 82.164
391.992, 30.443
393.339, 164.658
394.685, 203.852
396.031, 189.014
397.376, 301.230
398.722, 143.297
400.067, 404.402
401.412, 289.482
402.757, 247.531
404.101, 485.334
405.446, 419.967
406.790, 337.197
408.134, 469.785
409.478, 463.270
410.821, 603.279
412.165, 521.174
413.508, 444.756
414.851, 545.439
416.193, 669.189
417.536, 594.277
418.878, 811.998
420.220, 915.920
421.562, 1312.893
422.904, 1312.867
424.245, 2170.779
425.586, 3537.732
426.927, 5188.936
428.268, 7731.736
429.609, 10511.215
430.949, 11984.688
432.289, 12214.055
433.629, 9912.932
434.969, 6956.361
436.309, 4847.129
437.648, 3219.096
438.987, 2536.781
440.326, 1731.523
441.665, 1047.119
443.003, 844.564
444.342, 794.965
445.680, 623.316
447.018, 563.645
448.355, 385.926
449.693, 141.166
451.030, 279.352
452.367, 2.488
453.704, 428.570
455.041, 2.604
456.377, 159.582
457.713, 298.510
459.049, 197.391
460.385, 290.260
461.721, 303.086
463.056, 536.898
464.391, 156.678
465.726, 209.422
467.061, 332.131
468.395, 27.805
469.730, 144.564
471.064, 29.961
472.398, 189.551
473.731, 5.197
475.065, 253.891
476.398, 77.746
477.731, 96.676
479.064, 96.312
480.397, 159.262
481.729, 170.172
483.062, 465.049
484.394, 609.891
485.725, 500.699
487.057, 408.477
488.389, 209.221
489.720, 232.930
491.051, 16.605
492.382, 221.244
493.712, 10.850
495.043, 39.445
496.373, 434.111
497.703, 124.898
499.032, 47.797
500.362, 219.764
501.691, 199.730
503.020, 248.672
504.349, 203.586
505.678, 290.865
507.007, 584.338
508.335, 485.070
509.663, 642.281
510.991, 817.441
512.319, 829.564
513.646, 838.422
514.973, 942.051
516.300, 768.547
517.627, 758.566
518.954, 920.004
520.280, 710.770
521.607, 729.971
522.933, 719.082
524.259, 610.973
525.584, 637.072
526.910, 790.215
528.235, 925.674
529.560, 1011.105
530.885, 1290.514
532.209, 1153.898
533.534, 1244.258
534.858, 1618.592
536.182, 1619.898
537.506, 1485.143
538.829, 1506.400
540.152, 1640.117
541.476, 1338.166
542.799, 1617.633
544.121, 863.508
545.444, 1328.629
546.766, 1150.553
548.088, 937.824
549.410, 1056.492
550.732, 922.783
552.053, 1198.771
553.375, 1035.689
554.696, 809.535
556.017, 999.596
557.337, 932.801
558.658, 1104.277
559.978, 1132.963
561.298, 1050.131
562.618, 1431.914
563.938, 1230.002
565.257, 1496.887
566.576, 1795.344
567.895, 1778.088
569.214, 2416.229
570.533, 2550.836
571.851, 2798.678
573.170, 3310.400
574.488, 4162.361
575.805, 4738.268
577.123, 5391.422
578.440, 6301.965
579.758, 7135.293
581.075, 8325.572
582.391, 8581.766
583.708, 9282.062
585.024, 8917.004
586.341, 8334.689
587.657, 7661.375
588.972, 6932.186
590.288, 5974.115
591.603, 4956.711
592.918, 3968.395
594.233, 3427.877
595.548, 3014.145
596.863, 2668.406
598.177, 2273.570
599.491, 1950.789
600.805, 1928.332
602.119, 1621.594
603.432, 1482.248
604.746, 1561.939
606.059, 1381.750
607.372, 1278.814
608.685, 992.523
609.997, 1031.953
611.309, 1144.438
612.621, 1065.836
613.933, 881.318
615.245, 885.980
616.557, 920.201
617.868, 1164.805
619.179, 1186.936
620.490, 1109.137
621.801, 968.795
623.111, 1352.904
624.421, 1239.850
625.731, 1650.951
627.041, 1224.830
628.351, 1551.338
629.660, 1371.936
630.970, 1370.611
632.279, 1932.158
633.588, 1668.789
634.896, 1872.475
636.205, 1860.977
637.513, 2011.949
638.821, 2078.264
640.129, 2015.404
641.437, 2226.168
642.744, 2377.902
644.051, 2506.490
645.358, 2430.293
646.665, 2675.584
647.972, 2963.293
649.278, 2951.457
650.584, 3216.199
651.890, 3305.258
653.196, 4230.438
654.502, 3982.494
655.807, 4596.805
657.113, 4565.842
658.418, 5142.475
659.722, 5540.115
661.027, 5753.812
662.331, 5764.309
663.636, 5740.230
664.940, 5932.111
666.244, 5303.336
667.547, 5146.529
668.851, 4592.396
670.154, 4402.543
671.457, 3683.666
672.760, 3209.787
674.062, 3098.893
675.365, 2388.275
676.667, 2214.377
677.969, 1898.461
679.271, 1585.688
680.572, 1486.762
681.874, 1190.811
683.175, 1267.832
684.476, 1235.828
685.777, 940.795
687.077, 759.729
688.378, 495.639
689.678, 790.516
690.978, 662.365
692.278, 470.184
693.577, 21.025
694.877, 658.709
696.176, 179.414
697.475, 526.088
698.774, 63.736
700.072, 279.352
701.371, 211.945
702.669, 118.529
703.967, 79.910
705.265, 301.568
706.562, 305.035
707.860, 225.479
709.157, 40.098
710.454, 334.625
711.751, 41.039
713.047, 384.236
714.344, 110.484
715.640, 316.701
716.936, 321.955
718.232, 128.061
719.527, 267.193
720.823, 29.297
722.118, 70.639
723.413, 97.346
724.708, 41.707
726.002, 48.824
727.297, 74.982
728.591, 97.248
729.885, 100.439
731.179, 92.133
732.472, 43.670
733.766, 140.418
735.059, 104.316
736.352, 71.043
737.645, 2.969
738.937, 23.674
740.230, 107.400
741.522, 94.863
742.814, 14.703
744.106, 119.566
745.397, 68.555
746.689, 14.793
747.980, 145.455
749.271, 174.127
750.562, 10.672
751.853, 218.174
753.143, 155.359
754.433, 214.977
755.723, 162.719
757.013, 6.545
758.303, 328.672
759.592, 71.879
760.881, 276.135
762.170, 7.230
763.459, 543.168
764.748, 428.443
766.036, 194.498
767.325, 652.354
768.613, 222.918
769.901, 481.182
771.188, 455.623
772.476, 102.633
773.763, 557.016
775.050, 42.930
776.337, 222.625
777.624, 186.965
778.910, 272.631
780.196, 341.094
781.482, 336.117
782.768, 93.883
784.054, 149.291
785.339, 555.082
786.625, 808.482
787.910, 1228.969
789.195, 1342.992
790.479, 1065.400
791.764, 1087.805
793.048, 1498.795
794.332, 857.498
795.616, 926.389
796.900, 833.705
798.183, 483.402
799.467, 472.779
800.750, 375.016
802.033, 246.604
803.316, 154.787
804.598, 215.623
805.880, 162.744
807.163, 157.553
808.445, 189.961
809.726, 200.010
811.008, 181.453
812.289, 204.713
813.570, 176.402
814.851, 204.330
816.132, 202.225
817.413, 171.092
818.693, 173.924
819.973, 475.719
821.253, 347.490
822.533, 156.234
823.813, 623.312
825.092, 393.996
826.371, 569.654
827.650, 548.430
828.929, 258.053
830.208, 638.967
831.486, 715.967
832.764, 282.521
834.042, 410.180
835.320, 620.750
836.598, 541.309
837.875, 835.416
839.152, 761.967
840.429, 618.494
841.706, 1015.281
842.983, 672.799
844.259, 888.316
845.536, 1078.820
846.812, 578.303
848.088, 960.805
849.363, 691.248
850.639, 709.568
851.914, 1123.432
853.189, 686.723
854.464, 1008.898
855.739, 866.766
857.013, 1128.277
858.288, 542.982
859.562, 555.215
860.836, 800.467
862.110, 764.371
863.383, 232.484
864.656, 897.818
865.930, 390.832
867.203, 506.133
868.475, 490.457
869.748, 424.697
871.020, 347.930
872.292, 435.330
873.564, 442.314
874.836, 469.297
876.108, 485.514
877.379, 470.049
878.650, 488.352
879.922, 395.662
881.192, 386.789
882.463, 272.084
883.733, 352.178
885.004, 321.336
886.274, 200.266
887.544, 117.777
888.813, 518.527
890.083, 69.354
891.352, 243.236
892.621, 553.967
893.890, 114.018
895.159, 222.270
896.427, 182.469
897.695, 27.500
898.964, 488.355
900.232, 119.508
901.499, 375.520
902.767, 331.688
904.034, 437.027
905.301, 396.340
906.568, 356.109
907.835, 394.969
909.102, 224.867
910.368, 254.996
911.634, 163.680
912.900, 258.277
914.166, 217.711
915.432, 363.836
916.697, 159.488
917.962, 9.883
919.227, 297.121
920.492, 71.707
921.757, 138.785
923.021, 90.312
924.285, 470.816
925.550, 355.465
926.813, 142.926
928.077, 440.324
929.341, 50.277
930.604, 204.055
931.867, 461.168
933.130, 106.516
934.393, 163.844
935.655, 595.148
936.918, 152.664
938.180, 489.922
939.442, 227.164
940.703, 108.375
941.965, 377.566
943.226, 383.738
944.488, 109.887
945.749, 175.152
947.009, 125.234
948.270, 434.855
949.530, 162.668
950.791, 234.020
952.051, 292.168
953.311, 172.285
954.570, 305.441
955.830, 198.801
957.089, 374.016
958.348, 310.281
959.607, 168.395
960.866, 423.000
962.124, 169.238
963.383, 282.406
964.641, 505.641
965.899, 279.730
967.156, 470.910
968.414, 334.051
969.671, 427.039
970.928, 493.004
972.185, 282.723
973.442, 529.258
974.699, 193.070
975.955, 315.309
977.211, 421.129
978.468, 17.676
979.723, 343.805
980.979, 215.836
982.234, 191.086
983.490, 755.410
984.745, 161.066
986.000, 632.297
987.254, 589.777
988.509, 172.883
989.763, 638.281
991.017, 534.664
992.271, 269.629
993.525, 393.406
994.779, 459.168
996.032, 596.195
997.285, 632.789
998.538, 896.070
999.791, 374.336
1001.044, 1009.957
1002.296, 535.309
1003.548, 1174.125
1004.800, 962.984
1006.052, 1143.332
1007.304, 1380.719
1008.555, 1763.449
1009.807, 1253.355
1011.058, 1164.641
1012.309, 1138.465
1013.559, 1011.414
1014.810, 847.727
1016.060, 670.406
1017.310, 627.699
1018.560, 965.922
1019.810, 588.910
1021.060, 843.930
1022.309, 913.559
1023.558, 619.871
1024.807, 998.344
1026.056, 615.477
1027.305, 792.750
1028.553, 849.555
1029.801, 1253.113
1031.049, 1059.918
1032.297, 1017.035
1033.545, 768.074
1034.793, 919.414
1036.040, 1174.059
1037.287, 1350.645
1038.534, 1404.523
1039.781, 1885.797
1041.027, 1759.578
1042.274, 1538.996
1043.520, 2011.680
1044.766, 2432.449
1046.012, 2279.125
1047.257, 2740.012
1048.503, 3154.391
1049.748, 3992.297
1050.993, 4048.160
1052.238, 5566.758
1053.483, 6704.281
1054.727, 8204.988
1055.971, 10249.477
1057.216, 13485.754
1058.459, 15743.344
1059.703, 18199.328
1060.947, 18184.812
1062.190, 17264.531
1063.433, 14580.469
1064.676, 11916.422
1065.919, 8981.105
1067.162, 7047.957
1068.404, 5849.148
1069.646, 4258.996
1070.888, 3606.727
1072.130, 3343.531
1073.372, 2519.395
1074.613, 2271.070
1075.855, 2152.273
1077.096, 1581.254
1078.337, 1429.395
1079.578, 1590.695
1080.818, 1281.609
1082.059, 1316.824
1083.299, 1179.266
1084.539, 1522.074
1085.779, 1852.047
1087.018, 2050.684
1088.258, 1622.555
1089.497, 1076.516
1090.736, 616.613
1091.975, 556.246
1093.213, 576.520
1094.452, 270.324
1095.690, 353.965
1096.928, 136.984
1098.166, 364.156
1099.404, 470.805
1100.642, 514.680
1101.879, 517.285
1103.116, 404.852
1104.353, 293.492
1105.590, 367.754
1106.827, 107.227
1108.063, 626.156
1109.299, 471.902
1110.536, 833.277
1111.771, 991.234
1113.007, 911.031
1114.243, 1540.723
1115.478, 1512.309
1116.713, 1404.852
1117.948, 1021.332
1119.183, 1121.738
1120.418, 543.078
1121.652, 589.668
1122.886, 616.480
1124.120, 400.215
1125.354, 494.926
1126.588, 2.871
1127.821, 406.770
1129.055, 51.531
1130.288, 364.566
1131.521, 339.043
1132.753, 247.395
1133.986, 189.293
1135.218, 27.996
1136.450, 582.184
1137.682, 126.047
1138.914, 502.777
1140.146, 71.332
1141.377, 68.164
1142.609, 36.191
1143.840, 47.332
1145.071, 77.461
1146.301, 236.094
1147.532, 101.410
1148.762, 174.562
1149.992, 89.844
1151.222, 85.191
1152.452, 49.652
1153.682, 413.277
1154.911, 174.191
1156.140, 303.199
1157.369, 118.500
1158.598, 61.293
1159.827, 44.762
1161.055, 222.164
1162.284, 35.969
1163.512, 269.758
1164.740, 116.062
1165.967, 506.605
1167.195, 229.949
1168.422, 406.328
1169.650, 261.684
1170.877, 42.211
1172.103, 2.770
1173.330, 80.641
1174.557, 311.570
1175.783, 412.277
1177.009, 464.910
1178.235, 209.969
1179.461, 314.078
1180.686, 24.973
1181.912, 186.457
1183.137, 292.730
1184.362, 550.371
1185.587, 204.258
1186.811, 241.859
1188.036, 375.254
1189.260, 195.215
1190.484, 345.891
1191.708, 384.270
1192.932, 273.309
1194.155, 215.379
1195.378, 198.227
1196.602, 269.004
1197.825, 366.719
1199.047, 184.359
1200.270, 661.926
1201.492, 316.422
1202.715, 666.840
1203.937, 65.199
1205.159, 583.488
1206.380, 475.727
1207.602, 675.910
1208.823, 145.031
1210.044, 504.082
1211.265, 469.074
1212.486, 558.004
1213.707, 424.871
1214.927, 384.672
1216.147, 505.395
1217.367, 587.676
1218.587, 645.195
1219.807, 560.336
1221.027, 519.391
1222.246, 644.602
1223.465, 335.258
1224.684, 643.000
1225.903, 984.133
1227.121, 874.184
1228.340, 367.180
1229.558, 936.141
1230.776, 606.855
1231.994, 731.695
1233.212, 376.293
1234.429, 842.844
1235.646, 589.680
1236.864, 389.043
1238.081, 799.480
1239.297, 439.090
1240.514, 788.531
1241.730, 754.238
1242.947, 727.309
1244.163, 604.996
1245.378, 660.309
1246.594, 809.020
1247.810, 789.594
1249.025, 759.285
1250.240, 829.961
1251.455, 554.570
1252.670, 614.422
1253.885, 370.746
1255.099, 643.000
1256.313, 431.781
1257.527, 47.422
1258.741, 754.465
1259.955, 720.484
1261.168, 236.797
1262.382, 489.203
1263.595, 648.684
1264.808, 525.031
1266.021, 493.652
1267.233, 383.070
1268.446, 308.555
1269.658, 614.195
1270.870, 136.176
1272.082, 516.859
1273.294, 410.273
1274.505, 526.543
1275.716, 285.246
1276.928, 369.234
1278.139, 237.418
1279.349, 477.098
1280.560, 577.863
1281.770, 491.164
1282.981, 371.098
1284.191, 217.398
1285.401, 582.688
1286.610, 468.828
1287.820, 495.227
1289.029, 478.934
1290.239, 447.910
1291.448, 694.898
1292.656, 376.820
1293.865, 480.172
1295.073, 337.598
1296.282, 583.027
1297.490, 560.195
1298.698, 360.012
1299.906, 564.711
1301.113, 529.805
1302.320, 384.750
1303.528, 413.562
1304.735, 660.848
1305.942, 238.320
1307.148, 446.312
1308.355, 586.586
1309.561, 63.023
1310.767, 915.004
1311.973, 415.359
1313.179, 371.367
1314.384, 52.555
1315.590, 833.898
1316.795, 433.180
1318.000, 534.676
1319.205, 291.918
1320.410, 714.094
1321.614, 485.660
1322.819, 195.426
1324.023, 653.203
1325.227, 399.570
1326.431, 626.938
1327.634, 386.453
1328.838, 4.121
1330.041, 312.594
1331.244, 457.605
1332.447, 360.164
1333.650, 293.824
1334.852, 220.895
1336.055, 186.555
1337.257, 0.000
##END=



