##NAMES=Fluorapophyllite-(K)
##RRUFFID=R060554
##IDEAL CHEMISTRY=KCa_4_Si_8_O_20_F&#183;8H_2_O
##LOCALITY=unknown
##OWNER=RRUFF
##SOURCE=Gemological Institute of America
##DESCRIPTION=Colorless polished fragment
##STATUS=The identification of this mineral has been confirmed by X-ray diffraction and chemical analysis
##URL=rruff.info/R060554
##MEASURED CHEMISTRY=(K_0.88_Na_0.12_)Ca_4.00_Si_8.00_O_20_F_1.00_Â·8H2O
124.421, 0.000
124.903, 2.533
125.385, 8.734
125.867, 42.604
126.349, 112.536
126.831, 223.552
127.313, 362.662
127.796, 528.631
128.278, 716.889
128.760, 927.664
129.242, 1162.613
129.724, 1417.108
130.206, 1662.137
130.688, 1927.906
131.170, 2161.826
131.652, 2358.518
132.135, 2509.018
132.617, 2604.889
133.099, 2636.263
133.581, 2582.757
134.063, 2442.448
134.545, 2166.768
135.027, 1869.309
135.509, 1589.076
135.992, 1334.432
136.474, 1102.783
136.956, 892.531
137.438, 706.797
137.920, 544.099
138.402, 406.604
138.884, 288.457
139.366, 184.402
139.848, 94.020
140.331, 20.987
140.813, 27.961
141.295, 43.043
141.777, 54.004
142.259, 67.767
142.741, 74.623
143.223, 64.050
143.705, 33.295
144.188, 11.525
144.670, 62.229
145.152, 116.678
145.634, 182.760
146.116, 271.188
146.598, 368.915
147.080, 456.337
147.562, 526.582
148.044, 592.270
148.527, 676.987
149.009, 783.479
149.491, 892.385
149.973, 1004.557
150.455, 1116.159
150.937, 1219.099
151.419, 1310.498
151.901, 1394.201
152.383, 1475.743
152.866, 1552.223
153.348, 1636.068
153.830, 1724.517
154.312, 1822.872
154.794, 1945.191
155.276, 2094.663
155.758, 2273.729
156.240, 2479.288
156.723, 2706.199
157.205, 2965.800
157.687, 3266.756
158.169, 3605.025
158.651, 3976.758
159.133, 4408.785
159.615, 4842.523
160.097, 5214.224
160.579, 5547.352
161.062, 5763.181
161.544, 5808.052
162.026, 5687.846
162.508, 5436.577
162.990, 5007.572
163.472, 4487.382
163.954, 4002.608
164.436, 3558.316
164.919, 3150.421
165.401, 2780.500
165.883, 2447.520
166.365, 2146.948
166.847, 1887.526
167.329, 1658.044
167.811, 1442.789
168.293, 1239.389
168.775, 1054.639
169.258, 895.262
169.740, 761.315
170.222, 650.149
170.704, 565.267
171.186, 502.945
171.668, 456.643
172.150, 424.220
172.632, 413.136
173.115, 435.783
173.597, 494.222
174.079, 560.242
174.561, 618.532
175.043, 684.842
175.525, 774.841
176.007, 893.749
176.489, 1029.698
176.971, 1164.015
177.454, 1292.185
177.936, 1454.929
178.418, 1671.421
178.900, 1928.568
179.382, 2219.291
179.864, 2542.892
180.346, 2900.348
180.828, 3294.607
181.311, 3725.863
181.793, 4188.543
182.275, 4727.797
182.757, 5273.233
183.239, 5785.663
183.721, 6270.365
184.203, 6656.665
184.685, 6862.087
185.167, 6879.062
185.650, 6753.315
186.132, 6414.546
186.614, 5973.875
187.096, 5481.988
187.578, 4940.725
188.060, 4407.412
188.542, 3937.938
189.024, 3534.811
189.507, 3204.331
189.989, 2992.579
190.471, 2835.389
190.953, 2692.324
191.435, 2553.438
191.917, 2432.960
192.399, 2344.060
192.881, 2284.479
193.363, 2264.078
193.846, 2313.667
194.328, 2391.070
194.810, 2470.398
195.292, 2545.800
195.774, 2624.708
196.256, 2711.905
196.738, 2804.505
197.220, 2917.333
197.702, 3074.087
198.185, 3241.968
198.667, 3392.530
199.149, 3520.941
199.631, 3656.066
200.113, 3831.143
200.595, 4050.046
201.077, 4300.530
201.559, 4576.879
202.042, 4892.484
202.524, 5256.632
203.006, 5672.950
203.488, 6134.802
203.970, 6636.396
204.452, 7179.281
204.934, 7759.438
205.416, 8406.105
205.898, 9070.193
206.381, 9738.496
206.863, 10408.945
207.345, 11042.169
207.827, 11621.369
208.309, 12153.589
208.791, 12553.202
209.273, 12823.577
209.755, 12924.774
210.238, 12811.839
210.720, 12485.930
211.202, 12011.494
211.684, 11412.655
212.166, 10685.580
212.648, 9960.298
213.130, 9218.413
213.612, 8523.493
214.094, 7912.047
214.577, 7387.564
215.059, 6931.452
215.541, 6542.641
216.023, 6220.876
216.505, 5938.058
216.987, 5703.166
217.469, 5501.899
217.951, 5325.998
218.434, 5174.018
218.916, 5038.814
219.398, 4912.461
219.880, 4796.582
220.362, 4706.119
220.844, 4644.551
221.326, 4608.564
221.808, 4589.621
222.290, 4589.546
222.773, 4614.976
223.255, 4682.636
223.737, 4783.488
224.219, 4872.415
224.701, 4947.148
225.183, 5010.500
225.665, 5071.564
226.147, 5125.513
226.629, 5159.136
227.112, 5174.362
227.594, 5164.062
228.076, 5103.405
228.558, 4981.502
229.040, 4829.217
229.522, 4664.127
230.004, 4484.757
230.486, 4287.112
230.969, 4064.942
231.451, 3825.430
231.933, 3578.073
232.415, 3320.262
232.897, 3064.072
233.379, 2811.331
233.861, 2566.650
234.343, 2338.517
234.825, 2133.039
235.307, 1944.021
235.790, 1761.204
236.272, 1583.541
236.754, 1417.076
237.236, 1261.948
237.718, 1120.543
238.200, 996.551
238.682, 895.368
239.165, 806.648
239.647, 720.895
240.129, 637.716
240.611, 562.740
241.093, 503.021
241.575, 450.668
242.057, 391.931
242.539, 321.119
243.021, 252.720
243.503, 198.643
243.986, 157.477
244.468, 118.526
244.950, 76.368
245.432, 36.366
245.914, 6.771
246.396, 10.236
246.878, 23.816
247.361, 38.370
247.843, 53.280
248.325, 67.701
248.807, 83.427
249.289, 94.984
249.771, 91.115
250.253, 69.114
250.735, 52.512
251.217, 51.385
251.699, 60.948
252.182, 75.210
252.664, 94.431
253.146, 111.480
253.628, 115.331
254.110, 105.532
254.592, 95.062
255.074, 89.409
255.556, 82.857
256.039, 68.701
256.521, 45.795
257.003, 17.408
257.485, 13.891
257.967, 48.419
258.449, 85.255
258.931, 122.648
259.413, 163.447
259.896, 208.417
260.378, 258.340
260.860, 316.752
261.342, 389.051
261.824, 474.890
262.306, 554.783
262.788, 624.817
263.270, 692.799
263.752, 767.605
264.235, 844.703
264.717, 911.695
265.199, 961.265
265.681, 994.326
266.163, 1017.055
266.645, 1041.781
267.127, 1044.511
267.609, 1013.606
268.091, 957.735
268.574, 888.267
269.056, 810.094
269.538, 725.887
270.020, 645.273
270.502, 566.388
270.984, 493.598
271.466, 426.381
271.948, 365.624
272.431, 313.725
272.913, 271.029
273.395, 233.565
273.877, 193.614
274.359, 145.698
274.841, 106.469
275.323, 76.410
275.805, 53.205
276.288, 35.566
276.770, 23.066
277.252, 15.806
277.734, 13.632
278.216, 16.222
278.698, 25.736
279.180, 44.917
279.662, 68.355
280.144, 92.463
280.626, 118.718
281.109, 152.375
281.591, 199.916
282.073, 260.406
282.555, 312.677
283.037, 347.056
283.519, 385.251
284.001, 433.262
284.483, 489.594
284.966, 551.194
285.448, 614.849
285.930, 684.051
286.412, 768.275
286.894, 873.571
287.376, 981.723
287.858, 1078.231
288.340, 1178.033
288.823, 1296.949
289.305, 1441.479
289.787, 1601.132
290.269, 1763.536
290.751, 1928.301
291.233, 2097.000
291.715, 2268.353
292.197, 2445.002
292.679, 2631.057
293.162, 2827.390
293.644, 3024.096
294.126, 3219.107
294.608, 3409.998
295.090, 3584.464
295.572, 3750.798
296.054, 3882.585
296.536, 3951.125
297.018, 3961.476
297.501, 3946.749
297.983, 3930.934
298.465, 3894.835
298.947, 3802.033
299.429, 3644.260
299.911, 3453.633
300.393, 3247.110
300.875, 3026.584
301.358, 2810.209
301.840, 2594.784
302.322, 2388.851
302.804, 2200.191
303.286, 2028.023
303.768, 1865.824
304.250, 1707.998
304.732, 1556.500
305.215, 1417.041
305.697, 1291.072
306.179, 1173.575
306.661, 1058.628
307.143, 950.961
307.625, 860.885
308.107, 794.396
308.589, 743.596
309.071, 692.307
309.553, 639.858
310.036, 585.339
310.518, 524.530
311.000, 463.419
311.482, 406.082
311.964, 354.687
312.446, 312.337
312.928, 283.795
313.410, 273.443
313.893, 261.602
314.375, 247.617
314.857, 234.277
315.339, 221.316
315.821, 208.418
316.303, 197.107
316.785, 188.104
317.267, 181.712
317.750, 182.081
318.232, 195.176
318.714, 208.182
319.196, 217.958
319.678, 225.735
320.160, 232.416
320.642, 237.733
321.124, 244.605
321.606, 259.176
322.089, 282.848
322.571, 310.167
323.053, 345.306
323.535, 380.379
324.017, 405.744
324.499, 419.564
324.981, 438.286
325.463, 478.557
325.945, 539.253
326.428, 603.610
326.910, 675.521
327.392, 744.918
327.874, 798.873
328.356, 840.028
328.838, 886.247
329.320, 950.623
329.802, 1023.362
330.284, 1086.912
330.767, 1139.521
331.249, 1194.006
331.731, 1260.423
332.213, 1335.658
332.695, 1407.077
333.177, 1474.865
333.659, 1537.452
334.142, 1593.259
334.624, 1642.074
335.106, 1684.131
335.588, 1720.421
336.070, 1749.028
336.552, 1763.245
337.034, 1765.377
337.516, 1752.418
337.998, 1718.581
338.480, 1671.882
338.963, 1621.462
339.445, 1569.583
339.927, 1511.564
340.409, 1440.666
340.891, 1352.507
341.373, 1266.094
341.855, 1180.817
342.337, 1097.533
342.819, 1017.535
343.302, 939.906
343.784, 862.432
344.266, 781.816
344.748, 699.551
345.230, 624.592
345.712, 557.628
346.194, 515.370
346.677, 485.158
347.159, 452.020
347.641, 416.109
348.123, 369.140
348.605, 336.436
349.087, 297.998
349.569, 259.327
350.051, 228.614
350.533, 183.223
351.016, 152.368
351.498, 114.630
351.980, 75.075
352.462, 55.417
352.944, 50.529
353.426, 56.081
353.908, 56.171
354.390, 48.586
354.872, 37.947
355.355, 25.042
355.837, 11.554
356.319, 2.610
356.801, 0.161
357.283, 2.069
357.765, 6.803
358.247, 14.311
358.729, 24.221
359.211, 36.018
359.694, 50.405
360.176, 70.241
360.658, 100.565
361.140, 126.354
361.622, 136.836
362.104, 143.201
362.586, 160.767
363.069, 193.298
363.551, 232.549
364.033, 267.348
364.515, 293.849
364.997, 331.702
365.479, 385.262
365.961, 444.611
366.443, 504.561
366.925, 565.970
367.408, 631.971
367.890, 705.212
368.372, 784.818
368.854, 863.630
369.336, 941.851
369.818, 1018.695
370.300, 1098.914
370.782, 1175.053
371.264, 1240.833
371.747, 1294.117
372.229, 1334.617
372.711, 1363.631
373.193, 1381.653
373.675, 1380.507
374.157, 1363.373
374.639, 1319.179
375.121, 1234.368
375.603, 1115.773
376.086, 994.974
376.568, 886.715
377.050, 786.739
377.532, 687.000
378.014, 586.343
378.496, 493.126
378.978, 412.611
379.460, 343.967
379.943, 281.703
380.425, 225.459
380.907, 175.719
381.389, 131.323
381.871, 93.390
382.353, 66.140
382.835, 51.678
383.317, 41.163
383.799, 20.441
384.282, 18.757
384.764, 46.642
385.246, 60.652
385.728, 65.764
386.210, 59.802
386.692, 46.757
387.174, 38.288
387.656, 44.408
388.138, 62.650
388.621, 70.833
389.103, 58.564
389.585, 49.414
390.067, 51.839
390.549, 57.389
391.031, 56.705
391.513, 46.758
391.996, 31.920
392.478, 16.970
392.960, 1.639
393.442, 11.270
393.924, 19.817
394.406, 27.477
394.888, 36.519
395.370, 46.718
395.852, 56.864
396.335, 65.281
396.817, 73.730
397.299, 86.212
397.781, 103.131
398.263, 117.962
398.745, 126.099
399.227, 130.022
399.709, 137.394
400.191, 151.711
400.674, 163.563
401.156, 165.571
401.638, 163.823
402.120, 169.218
402.602, 184.602
403.084, 201.633
403.566, 208.391
404.048, 198.938
404.530, 205.237
405.013, 244.792
405.495, 281.028
405.977, 293.584
406.459, 288.857
406.941, 283.495
407.423, 287.214
407.905, 297.207
408.387, 303.811
408.870, 302.752
409.352, 307.368
409.834, 325.502
410.316, 345.992
410.798, 360.542
411.280, 367.949
411.762, 371.920
412.244, 372.287
412.727, 370.900
413.209, 378.672
413.691, 399.384
414.173, 421.846
414.655, 435.838
415.137, 445.987
415.619, 463.157
416.101, 492.973
416.583, 526.613
417.065, 553.159
417.548, 576.877
418.030, 613.960
418.512, 672.819
418.994, 743.214
419.476, 805.396
419.958, 845.709
420.440, 911.663
420.922, 1016.887
421.405, 1139.684
421.887, 1260.655
422.369, 1383.234
422.851, 1526.302
423.333, 1702.834
423.815, 1911.784
424.297, 2139.328
424.779, 2379.722
425.262, 2648.305
425.744, 2941.693
426.226, 3264.248
426.708, 3617.173
427.190, 3999.969
427.672, 4424.371
428.154, 4906.598
428.636, 5443.210
429.118, 6009.937
429.601, 6635.450
430.083, 7239.449
430.565, 7833.542
431.047, 8370.063
431.529, 8704.460
432.011, 8793.003
432.493, 8667.347
432.975, 8306.577
433.457, 7742.635
433.940, 7079.783
434.422, 6338.290
434.904, 5574.908
435.386, 4897.386
435.868, 4311.460
436.350, 3796.884
436.832, 3378.838
437.314, 3015.183
437.797, 2679.704
438.279, 2369.766
438.761, 2099.433
439.243, 1877.732
439.725, 1701.326
440.207, 1543.148
440.689, 1406.656
441.171, 1282.786
441.654, 1165.097
442.136, 1056.940
442.618, 965.226
443.100, 891.799
443.582, 827.116
444.064, 762.569
444.546, 700.029
445.028, 646.918
445.510, 605.899
445.992, 565.742
446.475, 518.454
446.957, 468.297
447.439, 422.138
447.921, 376.043
448.403, 338.110
448.885, 318.327
449.367, 311.751
449.849, 305.375
450.332, 294.909
450.814, 281.752
451.296, 266.378
451.778, 243.735
452.260, 234.353
452.742, 243.851
453.224, 260.509
453.706, 282.035
454.189, 305.399
454.671, 325.081
455.153, 337.016
455.635, 345.949
456.117, 365.415
456.599, 399.049
457.081, 432.883
457.563, 466.344
458.045, 497.894
458.528, 522.918
459.010, 542.656
459.492, 568.628
459.974, 619.107
460.456, 677.648
460.938, 706.441
461.420, 702.258
461.902, 697.647
462.384, 715.550
462.867, 743.794
463.349, 745.486
463.831, 708.722
464.313, 668.979
464.795, 637.433
465.277, 607.544
465.759, 571.610
466.241, 528.532
466.724, 482.267
467.206, 436.177
467.688, 390.321
468.170, 346.683
468.652, 304.810
469.134, 266.137
469.616, 231.981
470.098, 200.916
470.581, 171.344
471.063, 142.973
471.545, 115.706
472.027, 88.337
472.509, 61.202
472.991, 40.151
473.473, 26.167
473.955, 17.344
474.437, 15.694
474.919, 18.328
475.402, 17.312
475.884, 4.939
476.366, 5.305
476.848, 4.491
477.330, 5.097
477.812, 18.093
478.294, 32.777
478.776, 50.588
479.259, 74.499
479.741, 108.720
480.223, 133.911
480.705, 135.899
481.187, 144.592
481.669, 179.240
482.151, 229.599
482.633, 276.966
483.116, 312.561
483.598, 336.259
484.080, 344.648
484.562, 335.509
485.044, 326.504
485.526, 326.155
486.008, 320.421
486.490, 295.314
486.972, 254.167
487.455, 216.320
487.937, 193.254
488.419, 173.421
488.901, 142.049
489.383, 101.906
489.865, 67.942
490.347, 46.881
490.829, 34.977
491.311, 25.601
491.794, 22.824
492.276, 13.726
492.758, 9.217
493.240, 31.884
493.722, 46.811
494.204, 53.918
494.686, 55.241
495.168, 51.302
495.651, 44.353
496.133, 39.952
496.615, 37.676
497.097, 39.480
497.579, 52.970
498.061, 64.765
498.543, 62.649
499.025, 47.553
499.508, 33.470
499.990, 30.295
500.472, 29.537
500.954, 18.344
501.436, 2.038
501.918, 19.203
502.400, 26.655
502.882, 27.701
503.364, 29.741
503.846, 32.285
504.329, 36.861
504.811, 39.213
505.293, 47.094
505.775, 70.023
506.257, 103.955
506.739, 135.637
507.221, 155.732
507.703, 168.213
508.186, 186.141
508.668, 214.029
509.150, 231.738
509.632, 222.733
510.114, 211.100
510.596, 219.091
511.078, 245.816
511.560, 268.565
512.042, 265.655
512.525, 260.644
513.007, 255.137
513.489, 252.950
513.971, 255.064
514.453, 256.138
514.935, 256.228
515.417, 252.380
515.899, 253.627
516.382, 252.837
516.864, 251.967
517.346, 252.819
517.828, 237.497
518.310, 229.343
518.792, 223.014
519.274, 215.367
519.756, 207.229
520.239, 200.725
520.721, 196.255
521.203, 190.831
521.685, 181.368
522.167, 173.293
522.649, 172.995
523.131, 179.546
523.613, 183.542
524.096, 178.309
524.578, 172.196
525.060, 172.700
525.542, 178.867
526.024, 186.223
526.506, 192.740
526.988, 200.758
527.470, 214.988
527.952, 238.381
528.435, 260.056
528.917, 280.766
529.399, 299.190
529.881, 313.567
530.363, 325.354
530.845, 335.729
531.327, 344.086
531.809, 356.449
532.291, 386.756
532.774, 434.252
533.256, 469.177
533.738, 481.298
534.220, 487.502
534.702, 505.872
535.184, 534.380
535.666, 555.276
536.148, 561.173
536.630, 564.318
537.113, 570.882
537.595, 578.562
538.077, 583.991
538.559, 585.975
539.041, 583.715
539.523, 575.710
540.005, 561.481
540.487, 547.267
540.969, 537.827
541.452, 521.888
541.934, 488.534
542.416, 450.458
542.898, 424.618
543.380, 416.644
543.862, 411.316
544.344, 396.368
544.826, 374.958
545.309, 354.820
545.791, 336.862
546.273, 318.322
546.755, 296.514
547.237, 272.663
547.719, 253.336
548.201, 240.487
548.683, 228.913
549.166, 199.385
549.648, 186.803
550.130, 188.622
550.612, 185.748
551.094, 178.233
551.576, 161.317
552.058, 181.085
552.540, 166.893
553.023, 151.618
553.505, 184.070
553.987, 161.266
554.469, 156.021
554.951, 148.559
555.433, 138.159
555.915, 135.938
556.397, 155.767
556.879, 178.535
557.362, 185.213
557.844, 179.202
558.326, 172.552
558.808, 170.739
559.290, 177.819
559.772, 202.449
560.254, 255.032
560.736, 292.600
561.218, 302.796
561.701, 309.837
562.183, 317.101
562.665, 328.411
563.147, 349.232
563.629, 381.963
564.111, 423.479
564.593, 475.527
565.075, 534.343
565.557, 588.356
566.040, 636.167
566.522, 675.108
567.004, 697.735
567.486, 707.552
567.968, 745.025
568.450, 828.180
568.932, 911.884
569.414, 987.791
569.896, 1060.782
570.379, 1131.593
570.861, 1203.524
571.343, 1286.603
571.825, 1390.835
572.307, 1511.248
572.789, 1629.932
573.271, 1744.738
573.753, 1865.965
574.236, 1993.174
574.718, 2131.124
575.200, 2288.236
575.682, 2464.667
576.164, 2637.872
576.646, 2794.981
577.128, 2952.677
577.610, 3123.174
578.093, 3303.559
578.575, 3488.155
579.057, 3674.810
579.539, 3861.309
580.021, 4048.219
580.503, 4242.167
580.985, 4400.470
581.467, 4508.503
581.950, 4599.514
582.432, 4694.833
582.914, 4781.789
583.396, 4845.232
583.878, 4886.801
584.360, 4887.050
584.842, 4822.924
585.324, 4713.304
585.806, 4585.017
586.289, 4442.784
586.771, 4288.188
587.253, 4121.807
587.735, 3944.435
588.217, 3757.909
588.699, 3558.757
589.181, 3356.088
589.663, 3140.056
590.145, 2930.778
590.628, 2742.707
591.110, 2573.254
591.592, 2409.565
592.074, 2246.348
592.556, 2085.301
593.038, 1924.065
593.520, 1765.741
594.002, 1626.345
594.484, 1510.884
594.967, 1407.253
595.449, 1302.054
595.931, 1194.777
596.413, 1099.191
596.895, 1018.005
597.377, 943.058
597.859, 875.771
598.341, 812.135
598.823, 746.772
599.306, 679.347
599.788, 615.508
600.270, 561.462
600.752, 514.307
601.234, 463.124
601.716, 406.862
602.198, 358.291
602.680, 324.079
603.162, 297.991
603.645, 272.069
604.127, 246.702
604.609, 218.811
605.091, 182.440
605.573, 149.051
606.055, 126.994
606.537, 112.034
607.019, 96.634
607.502, 78.051
607.984, 58.889
608.466, 41.157
608.948, 25.038
609.430, 15.296
609.912, 14.294
610.394, 13.721
610.876, 10.312
611.359, 4.305
611.841, 3.850
612.323, 14.589
612.805, 25.906
613.287, 42.274
613.769, 55.016
614.251, 53.721
614.733, 41.888
615.216, 31.943
615.698, 30.364
616.180, 31.235
616.662, 21.747
617.144, 0.727
617.626, 15.320
618.108, 16.339
618.590, 15.996
619.072, 20.109
619.555, 28.033
620.037, 39.590
620.519, 57.223
621.001, 72.666
621.483, 80.640
621.965, 85.252
622.447, 91.569
622.929, 99.614
623.411, 105.439
623.894, 105.855
624.376, 104.715
624.858, 113.110
625.340, 133.371
625.822, 155.310
626.304, 183.731
626.786, 206.822
627.268, 215.433
627.750, 213.752
628.233, 212.000
628.715, 209.214
629.197, 212.697
629.679, 232.929
630.161, 259.660
630.643, 277.488
631.125, 284.390
631.607, 285.472
632.089, 283.542
632.572, 280.613
633.054, 285.620
633.536, 302.416
634.018, 316.971
634.500, 325.301
634.982, 332.692
635.464, 340.778
635.946, 350.483
636.429, 364.725
636.911, 387.258
637.393, 410.632
637.875, 429.421
638.357, 445.746
638.839, 463.191
639.321, 482.384
639.803, 501.076
640.286, 516.223
640.768, 530.404
641.250, 558.648
641.732, 608.571
642.214, 654.013
642.696, 689.163
643.178, 719.532
643.660, 744.261
644.143, 766.228
644.625, 796.526
645.107, 842.293
645.589, 893.413
646.071, 946.844
646.553, 999.759
647.035, 1046.634
647.517, 1086.688
647.999, 1123.626
648.482, 1158.704
648.964, 1194.999
649.446, 1249.417
649.928, 1328.594
650.410, 1408.928
650.892, 1488.633
651.374, 1566.505
651.856, 1638.040
652.338, 1706.174
652.821, 1784.046
653.303, 1888.755
653.785, 1989.267
654.267, 2058.535
654.749, 2114.366
655.231, 2187.441
655.713, 2281.224
656.195, 2373.161
656.677, 2443.176
657.160, 2497.410
657.642, 2564.179
658.124, 2649.478
658.606, 2725.354
659.088, 2782.952
659.570, 2832.808
660.052, 2887.168
660.534, 2942.540
661.016, 2983.525
661.499, 2998.083
661.981, 3008.715
662.463, 3032.095
662.945, 3054.749
663.427, 3060.542
663.909, 3046.977
664.391, 3018.306
664.873, 2976.791
665.356, 2924.398
665.838, 2870.025
666.320, 2815.803
666.802, 2745.633
667.284, 2646.030
667.766, 2545.322
668.248, 2475.493
668.730, 2426.760
669.213, 2358.283
669.695, 2254.566
670.177, 2147.702
670.659, 2042.410
671.141, 1941.200
671.623, 1849.773
672.105, 1767.231
672.587, 1687.205
673.070, 1605.777
673.552, 1522.313
674.034, 1432.207
674.516, 1336.235
674.998, 1264.560
675.480, 1227.963
675.962, 1193.278
676.444, 1134.283
676.926, 1055.370
677.409, 982.563
677.891, 916.304
678.373, 853.562
678.855, 791.990
679.337, 736.885
679.819, 695.310
680.301, 663.176
680.783, 629.858
681.265, 589.317
681.748, 549.972
682.230, 525.359
682.712, 510.365
683.194, 485.849
683.676, 449.247
684.158, 411.047
684.640, 375.737
685.122, 345.305
685.604, 325.331
686.087, 328.259
686.569, 318.208
687.051, 280.946
687.533, 246.121
688.015, 230.163
688.497, 225.696
688.979, 218.756
689.461, 205.003
689.943, 190.187
690.426, 177.570
690.908, 167.100
691.390, 159.945
691.872, 155.410
692.354, 149.781
692.836, 141.474
693.318, 129.967
693.800, 113.326
694.283, 89.244
694.765, 71.866
695.247, 63.310
695.729, 58.281
696.211, 58.066
696.693, 58.355
697.175, 52.819
697.657, 40.258
698.140, 30.712
698.622, 32.111
699.104, 34.228
699.586, 26.125
700.068, 12.760
700.550, 5.939
701.032, 8.956
701.514, 14.499
701.997, 14.843
702.479, 10.652
702.961, 5.979
703.443, 0.885
703.925, 5.181
704.407, 14.600
704.889, 22.116
705.371, 19.258
705.853, 6.056
706.336, 0.845
706.818, 12.491
707.300, 22.150
707.782, 20.267
708.264, 15.951
708.746, 20.731
709.228, 33.669
709.710, 43.344
710.192, 42.043
710.675, 34.458
711.157, 25.793
711.639, 16.858
712.121, 12.882
712.603, 15.263
713.085, 16.738
713.567, 10.650
714.049, 0.342
714.531, 3.641
715.014, 6.933
715.496, 13.916
715.978, 13.905
716.460, 12.740
716.942, 14.358
717.424, 16.821
717.906, 15.428
718.388, 7.617
718.870, 0.354
719.353, 0.420
719.835, 0.564
720.317, 3.873
720.799, 12.415
721.281, 18.029
721.763, 17.334
722.245, 13.803
722.727, 13.452
723.210, 16.499
723.692, 15.189
724.174, 7.584
724.656, 1.259
725.138, 0.616
725.620, 0.517
726.102, 4.023
726.584, 10.907
727.067, 11.890
727.549, 2.107
728.031, 12.738
728.513, 10.004
728.995, 0.721
729.477, 3.056
729.959, 1.704
730.441, 4.934
730.924, 3.926
731.406, 8.991
731.888, 10.465
732.370, 2.336
732.852, 3.234
733.334, 1.401
733.816, 0.764
734.298, 7.307
734.780, 3.277
735.263, 0.681
735.745, 24.135
736.227, 40.106
736.709, 36.888
737.191, 30.110
737.673, 29.258
738.155, 31.218
738.637, 26.358
739.119, 5.708
739.602, 0.583
740.084, 13.744
740.566, 22.434
741.048, 26.894
741.530, 14.522
742.012, 23.830
742.494, 24.418
742.976, 24.625
743.458, 36.920
743.941, 26.878
744.423, 38.936
744.905, 40.525
745.387, 42.185
745.869, 45.745
746.351, 48.785
746.833, 47.122
747.315, 39.524
747.797, 37.011
748.280, 40.646
748.762, 47.972
749.244, 62.541
749.726, 77.672
750.208, 87.310
750.690, 91.640
751.172, 94.913
751.654, 97.531
752.137, 101.572
752.619, 108.065
753.101, 117.322
753.583, 129.740
754.065, 145.437
754.547, 165.926
755.029, 193.157
755.511, 220.887
755.994, 231.202
756.476, 223.135
756.958, 233.898
757.440, 272.465
757.922, 309.955
758.404, 329.256
758.886, 338.365
759.368, 353.823
759.851, 378.003
760.333, 401.762
760.815, 426.305
761.297, 448.732
761.779, 466.974
762.261, 482.526
762.743, 499.000
763.225, 517.001
763.707, 531.399
764.190, 534.282
764.672, 533.749
765.154, 540.200
765.636, 551.375
766.118, 563.945
766.600, 575.074
767.082, 574.492
767.564, 553.356
768.046, 517.994
768.529, 484.807
769.011, 453.745
769.493, 427.615
769.975, 408.037
770.457, 389.143
770.939, 367.621
771.421, 344.791
771.903, 323.150
772.385, 300.484
772.868, 281.330
773.350, 268.504
773.832, 257.391
774.314, 247.155
774.796, 236.394
775.278, 222.932
775.760, 206.717
776.242, 191.837
776.724, 177.745
777.207, 167.889
777.689, 169.662
778.171, 178.605
778.653, 183.053
779.135, 180.456
779.617, 174.229
780.099, 161.565
780.581, 156.875
781.064, 166.630
781.546, 193.432
782.028, 215.805
782.510, 233.933
782.992, 236.242
783.474, 258.870
783.956, 273.558
784.438, 288.171
784.920, 309.637
785.403, 335.891
785.885, 354.064
786.367, 378.064
786.849, 419.633
787.331, 467.681
787.813, 506.996
788.295, 534.569
788.778, 559.043
789.260, 586.238
789.742, 609.374
790.224, 620.818
790.706, 624.837
791.188, 629.681
791.670, 635.378
792.152, 630.797
792.634, 603.941
793.117, 565.213
793.599, 540.026
794.081, 526.265
794.563, 505.567
795.045, 474.845
795.527, 438.930
796.009, 399.194
796.491, 358.702
796.973, 325.379
797.456, 302.659
797.938, 278.647
798.420, 252.034
798.902, 225.057
799.384, 193.690
799.866, 165.255
800.348, 148.528
800.830, 144.192
801.312, 143.240
801.795, 147.503
802.277, 149.321
802.759, 142.899
803.241, 132.691
803.723, 120.774
804.205, 109.966
804.687, 108.361
805.169, 123.120
805.652, 141.404
806.134, 143.401
806.616, 137.094
807.098, 144.511
807.580, 166.567
808.062, 189.918
808.544, 207.746
809.026, 223.855
809.508, 244.815
809.991, 270.870
810.473, 294.389
810.955, 315.927
811.437, 333.563
811.919, 348.979
812.401, 357.435
812.883, 354.479
813.365, 339.915
813.847, 313.561
814.330, 260.130
814.812, 216.921
815.294, 196.218
815.776, 181.188
816.258, 159.696
816.740, 134.842
817.222, 114.842
817.705, 101.734
818.187, 95.511
818.669, 102.271
819.151, 111.008
819.633, 110.193
820.115, 102.334
820.597, 90.954
821.079, 78.662
821.561, 76.021
822.044, 74.902
822.526, 87.689
823.008, 97.116
823.490, 103.359
823.972, 96.858
824.454, 106.838
824.936, 110.233
825.418, 113.374
825.901, 125.724
826.383, 127.284
826.865, 132.895
827.347, 140.794
827.829, 152.967
828.311, 163.265
828.793, 166.690
829.275, 168.129
829.757, 176.241
830.240, 192.127
830.722, 202.719
831.204, 202.006
831.686, 202.433
832.168, 207.066
832.650, 215.007
833.132, 226.980
833.614, 241.477
834.096, 254.470
834.579, 264.551
835.061, 272.143
835.543, 277.414
836.025, 280.437
836.507, 280.517
836.989, 278.451
837.471, 275.911
837.953, 273.613
838.435, 272.288
838.918, 271.370
839.400, 272.505
839.882, 282.983
840.364, 301.206
840.846, 313.840
841.328, 317.523
841.810, 316.667
842.292, 314.288
842.774, 311.191
843.257, 310.588
843.739, 313.536
844.221, 313.764
844.703, 308.768
845.185, 305.629
845.667, 309.619
846.149, 316.160
846.631, 315.964
847.114, 305.656
847.596, 306.128
848.078, 327.007
848.560, 346.140
849.042, 361.587
849.524, 370.265
850.006, 366.888
850.488, 354.150
850.971, 342.257
851.453, 334.612
851.935, 327.186
852.417, 316.771
852.899, 306.648
853.381, 292.064
853.863, 282.093
854.345, 265.937
854.828, 268.571
855.310, 266.656
855.792, 260.433
856.274, 236.978
856.756, 235.788
857.238, 225.686
857.720, 215.221
858.202, 217.183
858.684, 204.545
859.167, 199.199
859.649, 204.509
860.131, 200.993
860.613, 189.225
861.095, 180.426
861.577, 175.927
862.059, 167.288
862.541, 149.965
863.023, 130.883
863.506, 119.068
863.988, 114.635
864.470, 115.765
864.952, 130.819
865.434, 133.367
865.916, 107.359
866.398, 81.265
866.880, 76.477
867.362, 86.376
867.845, 94.360
868.327, 100.184
868.809, 100.290
869.291, 90.014
869.773, 82.117
870.255, 81.205
870.737, 84.605
871.219, 86.123
871.701, 85.594
872.184, 83.772
872.666, 82.808
873.148, 79.934
873.630, 74.750
874.112, 69.576
874.594, 49.607
875.076, 41.602
875.558, 50.587
876.041, 55.649
876.523, 57.839
877.005, 44.148
877.487, 50.894
877.969, 48.389
878.451, 45.247
878.933, 53.743
879.415, 40.251
879.898, 48.245
880.380, 47.662
880.862, 51.006
881.344, 45.849
881.826, 43.319
882.308, 49.291
882.790, 50.556
883.272, 44.450
883.755, 48.612
884.237, 35.630
884.719, 38.267
885.201, 48.000
885.683, 43.831
886.165, 47.810
886.647, 47.955
887.129, 31.732
887.611, 43.972
888.094, 43.901
888.576, 31.189
889.058, 34.118
889.540, 29.477
890.022, 23.560
890.504, 12.949
890.986, 5.239
891.468, 3.869
891.950, 6.012
892.433, 9.012
892.915, 12.670
893.397, 17.090
893.879, 25.887
894.361, 30.556
894.843, 24.855
895.325, 17.381
895.807, 13.040
896.289, 12.611
896.772, 18.445
897.254, 31.413
897.736, 39.377
898.218, 29.861
898.700, 18.012
899.182, 18.235
899.664, 23.759
900.146, 23.653
900.628, 17.419
901.111, 11.423
901.593, 9.051
902.075, 8.789
902.557, 10.111
903.039, 11.841
903.521, 11.025
904.003, 8.462
904.485, 7.305
904.968, 8.593
905.450, 12.212
905.932, 18.879
906.414, 26.535
906.896, 30.304
907.378, 30.416
907.860, 27.534
908.342, 21.799
908.825, 16.974
909.307, 15.104
909.789, 14.514
910.271, 12.091
910.753, 8.099
911.235, 9.471
911.717, 17.448
912.199, 22.914
912.682, 23.727
913.164, 21.223
913.646, 14.980
914.128, 7.517
914.610, 7.048
915.092, 17.003
915.574, 22.958
916.056, 24.739
916.538, 22.621
917.021, 13.997
917.503, 4.167
917.985, 1.664
918.467, 3.586
918.949, 2.713
919.431, 4.328
919.913, 9.053
920.395, 10.355
920.877, 10.017
921.360, 7.750
921.842, 4.934
922.324, 4.775
922.806, 7.867
923.288, 5.642
923.770, 9.030
924.252, 22.082
924.734, 31.645
925.216, 35.275
925.699, 25.926
926.181, 10.063
926.663, 7.619
927.145, 29.416
927.627, 28.148
928.109, 41.506
928.591, 20.310
929.073, 7.527
929.555, 2.702
930.038, 29.623
930.520, 15.586
931.002, 17.990
931.484, 21.086
931.966, 1.336
932.448, 8.487
932.930, 4.959
933.412, 1.936
933.895, 21.251
934.377, 28.288
934.859, 18.010
935.341, 5.241
935.823, 0.591
936.305, 1.396
936.787, 9.507
937.269, 19.311
937.752, 19.378
938.234, 12.044
938.716, 12.083
939.198, 24.785
939.680, 35.629
940.162, 26.998
940.644, 7.693
941.126, 2.965
941.609, 6.784
942.091, 12.685
942.573, 20.960
943.055, 18.660
943.537, 2.280
944.019, 26.534
944.501, 28.131
944.983, 12.329
945.465, 10.289
945.948, 21.154
946.430, 28.488
946.912, 28.383
947.394, 27.155
947.876, 29.374
948.358, 33.700
948.840, 37.597
949.322, 41.105
949.804, 41.981
950.287, 39.953
950.769, 37.172
951.251, 34.069
951.733, 31.233
952.215, 28.569
952.697, 27.321
953.179, 33.435
953.661, 49.029
954.143, 60.430
954.626, 66.730
955.108, 69.547
955.590, 68.662
956.072, 66.366
956.554, 65.782
957.036, 66.419
957.518, 62.533
958.000, 51.150
958.482, 43.460
958.965, 39.432
959.447, 41.716
959.929, 56.231
960.411, 72.809
960.893, 74.109
961.375, 59.008
961.857, 56.489
962.339, 76.842
962.822, 90.176
963.304, 87.066
963.786, 83.480
964.268, 87.666
964.750, 97.887
965.232, 112.177
965.714, 132.012
966.196, 147.374
966.679, 157.889
967.161, 164.294
967.643, 160.339
968.125, 158.531
968.607, 171.135
969.089, 191.214
969.571, 201.968
970.053, 200.197
970.536, 199.263
971.018, 205.253
971.500, 205.434
971.982, 194.563
972.464, 178.035
972.946, 156.949
973.428, 134.157
973.910, 117.600
974.392, 109.847
974.875, 103.415
975.357, 101.851
975.839, 95.416
976.321, 72.602
976.803, 49.620
977.285, 43.558
977.767, 51.466
978.249, 59.247
978.731, 65.013
979.214, 68.877
979.696, 67.464
980.178, 68.109
980.660, 79.321
981.142, 91.246
981.624, 90.057
982.106, 77.397
982.588, 67.445
983.070, 65.617
983.553, 64.581
984.035, 59.446
984.517, 57.003
984.999, 65.902
985.481, 76.682
985.963, 71.178
986.445, 53.037
986.927, 43.519
987.409, 53.903
987.892, 62.108
988.374, 61.294
988.856, 59.245
989.338, 63.749
989.820, 71.307
990.302, 71.059
990.784, 64.430
991.266, 61.761
991.749, 70.490
992.231, 77.124
992.713, 72.175
993.195, 68.610
993.677, 79.684
994.159, 96.103
994.641, 100.888
995.123, 92.569
995.606, 89.397
996.088, 101.137
996.570, 115.824
997.052, 127.244
997.534, 140.014
998.016, 159.396
998.498, 182.000
998.980, 200.473
999.463, 214.386
999.945, 231.190
1000.427, 258.662
1000.909, 283.825
1001.391, 298.900
1001.873, 311.036
1002.355, 323.639
1002.837, 339.550
1003.319, 366.206
1003.802, 403.459
1004.284, 431.403
1004.766, 433.305
1005.248, 434.208
1005.730, 447.618
1006.212, 463.720
1006.694, 477.490
1007.176, 486.350
1007.658, 488.776
1008.141, 484.039
1008.623, 466.634
1009.105, 424.296
1009.587, 381.748
1010.069, 350.872
1010.551, 324.368
1011.033, 276.121
1011.515, 252.326
1011.997, 237.264
1012.480, 220.049
1012.962, 200.874
1013.444, 173.694
1013.926, 156.861
1014.408, 135.891
1014.890, 116.977
1015.372, 87.302
1015.854, 61.984
1016.337, 46.446
1016.819, 40.954
1017.301, 34.416
1017.783, 13.655
1018.265, 3.395
1018.747, 1.301
1019.229, 5.503
1019.711, 9.528
1020.193, 10.924
1020.676, 1.785
1021.158, 6.264
1021.640, 5.294
1022.122, 4.107
1022.604, 10.521
1023.086, 2.947
1023.568, 9.255
1024.050, 10.033
1024.533, 9.537
1025.015, 10.999
1025.497, 14.902
1025.979, 21.342
1026.461, 30.569
1026.943, 42.030
1027.425, 54.827
1027.907, 70.666
1028.390, 97.747
1028.872, 124.427
1029.354, 132.233
1029.836, 120.850
1030.318, 113.223
1030.800, 112.450
1031.282, 117.328
1031.764, 132.396
1032.246, 147.752
1032.729, 158.967
1033.211, 167.012
1033.693, 171.570
1034.175, 173.468
1034.657, 179.947
1035.139, 196.321
1035.621, 210.870
1036.103, 217.843
1036.585, 228.253
1037.068, 250.194
1037.550, 275.503
1038.032, 295.337
1038.514, 310.140
1038.996, 324.266
1039.478, 332.196
1039.960, 349.080
1040.442, 381.562
1040.925, 413.526
1041.407, 434.703
1041.889, 457.942
1042.371, 497.829
1042.853, 550.990
1043.335, 599.617
1043.817, 640.435
1044.299, 685.186
1044.781, 730.830
1045.264, 786.455
1045.746, 857.745
1046.228, 934.738
1046.710, 1006.385
1047.192, 1077.233
1047.674, 1161.746
1048.156, 1261.809
1048.638, 1365.450
1049.120, 1468.440
1049.603, 1588.911
1050.085, 1732.708
1050.567, 1890.491
1051.049, 2051.386
1051.531, 2226.553
1052.013, 2405.809
1052.495, 2567.021
1052.977, 3170.651
1053.460, 4345.422
1053.942, 5105.662
1054.424, 5188.465
1054.906, 5097.632
1055.388, 5127.186
1055.870, 5271.687
1056.352, 5540.486
1056.834, 5920.150
1057.317, 6268.524
1057.799, 6584.924
1058.281, 6875.730
1058.763, 7143.058
1059.245, 7312.810
1059.727, 7347.099
1060.209, 7258.159
1060.691, 7047.954
1061.173, 6737.540
1061.656, 6393.779
1062.138, 6015.061
1062.620, 5587.161
1063.102, 5112.772
1063.584, 4629.203
1064.066, 4155.117
1064.548, 3726.120
1065.030, 3383.432
1065.512, 3095.614
1065.995, 2797.660
1066.477, 2504.450
1066.959, 2250.316
1067.441, 2033.786
1067.923, 1842.356
1068.405, 1670.369
1068.887, 1509.720
1069.369, 1352.240
1069.852, 1207.540
1070.334, 1090.837
1070.816, 992.331
1071.298, 897.785
1071.780, 808.695
1072.262, 732.599
1072.744, 669.899
1073.226, 612.550
1073.708, 555.950
1074.191, 502.859
1074.673, 460.015
1075.155, 416.877
1075.637, 352.512
1076.119, 290.044
1076.601, 275.837
1077.083, 293.118
1077.565, 266.337
1078.047, 160.792
1078.530, 80.454
1079.012, 88.326
1079.494, 109.836
1079.976, 110.458
1080.458, 103.946
1080.940, 105.021
1081.422, 109.007
1081.904, 102.664
1082.386, 83.207
1082.869, 66.693
1083.351, 55.604
1083.833, 48.155
1084.315, 49.324
1084.797, 48.015
1085.279, 35.814
1085.761, 19.705
1086.243, 6.700
1086.726, 3.615
1087.208, 4.096
1087.690, 13.957
1088.172, 25.081
1088.654, 25.130
1089.136, 23.755
1089.618, 25.303
1090.100, 24.240
1090.583, 13.517
1091.065, 2.966
1091.547, 8.398
1092.029, 0.551
1092.511, 0.528
1092.993, 11.227
1093.475, 18.440
1093.957, 16.509
1094.439, 10.181
1094.922, 2.187
1095.404, 5.335
1095.886, 6.234
1096.368, 2.207
1096.850, 9.016
1097.332, 25.396
1097.814, 34.880
1098.296, 34.948
1098.778, 32.106
1099.261, 29.466
1099.743, 29.257
1100.225, 35.638
1100.707, 44.834
1101.189, 46.026
1101.671, 45.026
1102.153, 59.125
1102.635, 83.999
1103.118, 99.876
1103.600, 101.960
1104.082, 102.659
1104.564, 108.956
1105.046, 120.815
1105.528, 139.491
1106.010, 162.006
1106.492, 186.862
1106.974, 213.171
1107.457, 242.210
1107.939, 273.218
1108.421, 302.259
1108.903, 325.494
1109.385, 354.619
1109.867, 399.254
1110.349, 445.173
1110.831, 487.248
1111.313, 525.479
1111.796, 562.160
1112.278, 595.412
1112.760, 621.165
1113.242, 638.524
1113.724, 652.153
1114.206, 666.136
1114.688, 671.023
1115.170, 671.344
1115.653, 654.806
1116.135, 611.122
1116.617, 551.864
1117.099, 487.062
1117.581, 419.915
1118.063, 375.806
1118.545, 361.933
1119.027, 340.868
1119.510, 311.364
1119.992, 271.756
1120.474, 218.280
1120.956, 172.186
1121.438, 151.626
1121.920, 144.494
1122.402, 122.849
1122.884, 90.374
1123.366, 78.495
1123.849, 84.056
1124.331, 85.506
1124.813, 79.333
1125.295, 69.641
1125.777, 58.469
1126.259, 48.439
1126.741, 42.659
1127.223, 39.375
1127.705, 37.383
1128.188, 35.164
1128.670, 30.211
1129.152, 22.559
1129.634, 10.037
1130.116, 5.365
1130.598, 10.029
1131.080, 7.816
1131.562, 24.173
1132.045, 23.897
1132.527, 17.112
1133.009, 7.248
1133.491, 2.181
1133.973, 9.517
1134.455, 13.101
1134.937, 7.494
1135.419, 10.934
1135.901, 22.354
1136.384, 19.966
1136.866, 15.445
1137.348, 8.835
1137.830, 3.545
1138.312, 2.620
1138.794, 2.474
1139.276, 3.691
1139.758, 13.858
1140.240, 8.999
1140.723, 16.831
1141.205, 29.780
1141.687, 27.365
1142.169, 15.325
1142.651, 6.865
1143.133, 21.286
1143.615, 12.992
1144.097, 5.238
1144.580, 10.853
1145.062, 6.047
1145.544, 2.782
1146.026, 13.367
1146.508, 15.070
1146.990, 7.844
1147.472, 1.729
1147.954, 10.592
1148.437, 14.801
1148.919, 7.755
1149.401, 0.153
1149.883, 3.623
1150.365, 13.947
1150.847, 31.697
1151.329, 47.439
1151.811, 44.198
1152.293, 24.964
1152.776, 14.027
1153.258, 21.913
1153.740, 25.926
1154.222, 14.014
1154.704, 2.575
1155.186, 2.511
1155.668, 4.057
1156.150, 3.981
1156.632, 2.038
1157.115, 3.029
1157.597, 11.198
1158.079, 16.235
1158.561, 17.865
1159.043, 16.417
1159.525, 9.867
1160.007, 8.177
1160.489, 16.306
1160.972, 23.826
1161.454, 21.283
1161.936, 13.235
1162.418, 7.384
1162.900, 4.769
1163.382, 16.343
1163.864, 3.685
1164.346, 21.550
1164.828, 32.005
1165.311, 35.437
1165.793, 10.843
1166.275, 22.422
1166.757, 19.496
1167.239, 15.969
1167.721, 32.627
1168.203, 12.131
1168.685, 28.452
1169.167, 30.046
1169.650, 38.372
1170.132, 29.089
1170.614, 31.768
1171.096, 46.303
1171.578, 56.780
1172.060, 56.185
1172.542, 54.350
1173.024, 54.406
1173.507, 54.217
1173.989, 51.735
1174.471, 48.718
1174.953, 48.040
1175.435, 49.309
1175.917, 47.728
1176.399, 41.843
1176.881, 41.143
1177.364, 47.068
1177.846, 50.136
1178.328, 47.254
1178.810, 46.404
1179.292, 53.432
1179.774, 63.232
1180.256, 68.756
1180.738, 70.327
1181.220, 67.424
1181.703, 61.686
1182.185, 56.838
1182.667, 53.234
1183.149, 50.606
1183.631, 48.620
1184.113, 45.913
1184.595, 41.699
1185.077, 36.624
1185.559, 27.587
1186.042, 21.892
1186.524, 28.161
1187.006, 37.432
1187.488, 39.034
1187.970, 35.616
1188.452, 37.499
1188.934, 47.706
1189.416, 54.281
1189.899, 56.967
1190.381, 55.947
1190.863, 49.626
1191.345, 43.223
1191.827, 39.048
1192.309, 34.424
1192.791, 26.593
1193.273, 19.270
1193.755, 20.663
1194.238, 29.219
1194.720, 34.664
1195.202, 37.054
1195.684, 34.604
1196.166, 28.971
1196.648, 30.398
1197.130, 41.487
1197.612, 48.525
1198.094, 39.458
1198.577, 30.175
1199.059, 38.019
1199.541, 46.455
1200.023, 34.438
1200.505, 16.362
1200.987, 13.945
1201.469, 25.787
1201.951, 37.773
1202.434, 46.979
1202.916, 51.761
1203.398, 47.292
1203.880, 43.842
1204.362, 48.332
1204.844, 47.324
1205.326, 31.747
1205.808, 16.696
1206.291, 15.587
1206.773, 21.611
1207.255, 14.273
1207.737, 4.737
1208.219, 5.584
1208.701, 9.724
1209.183, 21.901
1209.665, 27.298
1210.147, 27.468
1210.630, 23.817
1211.112, 20.923
1211.594, 21.768
1212.076, 22.670
1212.558, 17.069
1213.040, 13.238
1213.522, 19.921
1214.004, 30.452
1214.486, 37.007
1214.969, 38.840
1215.451, 33.313
1215.933, 17.777
1216.415, 16.248
1216.897, 46.661
1217.379, 62.233
1217.861, 52.600
1218.343, 42.992
1218.826, 43.383
1219.308, 44.830
1219.790, 39.324
1220.272, 30.223
1220.754, 24.709
1221.236, 22.063
1221.718, 17.061
1222.200, 11.245
1222.682, 12.515
1223.165, 19.771
1223.647, 25.495
1224.129, 27.297
1224.611, 23.499
1225.093, 9.811
1225.575, 1.114
1226.057, 15.229
1226.539, 29.998
1227.021, 29.272
1227.504, 21.892
1227.986, 12.570
1228.468, 5.198
1228.950, 8.304
1229.432, 22.110
1229.914, 32.724
1230.396, 41.170
1230.878, 42.345
1231.361, 34.733
1231.843, 28.516
1232.325, 26.589
1232.807, 26.685
1233.289, 27.644
1233.771, 26.785
1234.253, 17.177
1234.735, 5.452
1235.218, 6.262
1235.700, 13.413
1236.182, 17.845
1236.664, 20.051
1237.146, 24.596
1237.628, 30.573
1238.110, 29.209
1238.592, 15.532
1239.074, 6.331
1239.557, 12.972
1240.039, 18.232
1240.521, 14.474
1241.003, 10.156
1241.485, 9.202
1241.967, 10.577
1242.449, 12.852
1242.931, 16.756
1243.413, 25.923
1243.896, 40.899
1244.378, 48.645
1244.860, 49.133
1245.342, 39.698
1245.824, 22.054
1246.306, 13.865
1246.788, 20.806
1247.270, 27.216
1247.753, 21.220
1248.235, 11.832
1248.717, 2.982
1249.199, 0.339
1249.681, 11.875
1250.163, 27.237
1250.645, 32.710
1251.127, 30.360
1251.609, 25.678
1252.092, 19.298
1252.574, 16.240
1253.056, 16.967
1253.538, 20.498
1254.020, 28.419
1254.502, 32.995
1254.984, 32.157
1255.466, 28.665
1255.948, 23.890
1256.431, 19.514
1256.913, 18.071
1257.395, 17.578
1257.877, 13.798
1258.359, 8.640
1258.841, 2.794
1259.323, 0.246
1259.805, 8.047
1260.288, 0.000
##END=



