##NAMES=Hedenbergite
##RRUFFID=R060040
##IDEAL CHEMISTRY=CaFe^2+^Si_2_O_6_
##LOCALITY=Rio Marina, Elba, Italy
##OWNER=RRUFF
##SOURCE=University of Arizona Mineral Museum
##DESCRIPTION=Radial aggregate of green thin bladed crystals
##STATUS=The identification of this mineral has been confirmed by X-ray diffraction and chemical analysis
##URL=rruff.info/R060040
##MEASURED CHEMISTRY=Ca_1.00_(Fe^2+^_0.89_Mg_0.09_Mn_0.02_)_Î£=1_Si_2.00_O_6_
248.9564, 0.9861790
249.4385, 0.7893070
249.9206, 0.3376080
250.4027, 0.1002460
250.8848, 0.1568870
251.3670, 0.3367160
251.8491, 0.5076680
252.3312, 0.7099110
252.8133, 0.8148170
253.2954, 0.7763480
253.7775, 0.6050220
254.2597, 0.4642220
254.7418, 0.3309210
255.2239, 0.2578390
255.7060, 0.3135950
256.1881, 0.6052360
256.6703, 0.7647550
257.1524, 0.6924670
257.6345, 0.4245830
258.1166, 0.2789460
258.5987, 0.3015590
259.0808, 0.3801080
259.5630, 0.4367100
260.0451, 0.4632640
260.5272, 0.4901080
261.0093, 0.5281940
261.4914, 0.5703700
261.9735, 0.5835340
262.4557, 0.5854870
262.9378, 0.5288960
263.4199, 0.3541530
263.9020, 8.1789996E-03
264.3841, 0.2395900
264.8662, 0.2631530
265.3484, 0.1521420
265.8305, 0.1798860
266.3126, 0.3819240
266.7947, 0.6317370
267.2768, 0.8694760
267.7589, 1.118320
268.2411, 1.284416
268.7232, 1.343765
269.2053, 1.343559
269.6874, 1.395576
270.1695, 1.490627
270.6516, 1.664032
271.1338, 1.965958
271.6159, 2.440411
272.0980, 2.796757
272.5801, 3.013988
273.0622, 3.133186
273.5443, 3.209377
274.0265, 3.216904
274.5086, 3.262421
274.9907, 3.383945
275.4728, 3.576332
275.9549, 3.895863
276.4370, 4.371143
276.9192, 4.935860
277.4013, 5.507660
277.8834, 6.109875
278.3655, 6.592327
278.8476, 6.826050
279.3297, 6.801228
279.8118, 6.921238
280.2939, 7.189606
280.7761, 7.593918
281.2582, 8.167084
281.7403, 8.928688
282.2224, 9.644836
282.7045, 10.21981
283.1866, 10.66286
283.6688, 11.05956
284.1509, 11.39056
284.6330, 11.73887
285.1151, 12.22943
285.5972, 12.86126
286.0793, 13.50240
286.5615, 14.09789
287.0436, 14.66441
287.5257, 15.33768
288.0078, 16.15589
288.4899, 16.87698
288.9720, 17.08085
289.4542, 16.84175
289.9363, 16.96304
290.4184, 17.81833
290.9005, 19.13451
291.3826, 20.19951
291.8647, 21.01123
292.3469, 21.66283
292.8290, 22.14778
293.3111, 22.51649
293.7932, 23.04255
294.2753, 23.85714
294.7574, 24.79854
295.2396, 25.48822
295.7217, 25.94436
296.2038, 26.44326
296.6859, 27.33136
297.1680, 28.43020
297.6501, 29.19949
298.1323, 29.39319
298.6144, 29.48450
299.0965, 30.27185
299.5786, 31.66435
300.0607, 32.99701
300.5428, 33.77961
301.0250, 34.24334
301.5071, 34.84141
301.9892, 35.66500
302.4713, 36.54146
302.9534, 37.30396
303.4355, 37.96316
303.9177, 38.59280
304.3998, 39.34073
304.8819, 40.04560
305.3640, 40.46749
305.8461, 40.57520
306.3282, 40.44909
306.8104, 40.14201
307.2925, 39.68787
307.7746, 39.14249
308.2567, 38.49961
308.7388, 37.75419
309.2209, 36.94009
309.7031, 36.06929
310.1852, 34.99094
310.6673, 33.43159
311.1494, 31.64456
311.6315, 29.98458
312.1136, 28.64731
312.5958, 27.41048
313.0779, 26.06524
313.5600, 24.62394
314.0421, 23.27260
314.5242, 22.21890
315.0063, 21.30488
315.4885, 20.37178
315.9706, 19.21945
316.4527, 18.15058
316.9348, 17.30249
317.4169, 16.65253
317.8990, 16.09611
318.3812, 15.59049
318.8633, 15.16236
319.3454, 14.83671
319.8275, 14.62973
320.3096, 14.51450
320.7917, 14.50371
321.2739, 14.58730
321.7560, 14.72867
322.2381, 14.87402
322.7202, 15.09395
323.2023, 15.43494
323.6844, 15.95190
324.1666, 16.47254
324.6487, 17.02788
325.1308, 17.55415
325.6129, 17.94725
326.0950, 17.87471
326.5771, 17.96075
327.0593, 18.44780
327.5414, 19.46618
328.0235, 20.37503
328.5056, 21.03033
328.9877, 21.60150
329.4698, 22.25724
329.9520, 23.21163
330.4341, 23.99932
330.9162, 24.40041
331.3983, 24.38875
331.8804, 24.84087
332.3625, 26.04413
332.8447, 27.45692
333.3268, 28.69768
333.8089, 29.71592
334.2910, 30.65445
334.7731, 31.50399
335.2552, 32.28910
335.7374, 33.10863
336.2195, 33.95956
336.7016, 34.86020
337.1837, 35.88738
337.6658, 37.16190
338.1479, 38.11419
338.6301, 38.64411
339.1122, 38.88014
339.5943, 39.15472
340.0764, 39.55964
340.5585, 39.68686
341.0406, 39.31192
341.5228, 38.40503
342.0049, 37.37744
342.4870, 36.21560
342.9691, 34.94421
343.4512, 33.60721
343.9333, 32.19191
344.4155, 30.72095
344.8976, 29.18364
345.3797, 27.59412
345.8618, 26.09553
346.3439, 24.66200
346.8260, 23.40646
347.3082, 22.45337
347.7903, 21.78210
348.2724, 21.21158
348.7545, 20.67256
349.2366, 20.23205
349.7188, 20.07986
350.2009, 20.19908
350.6830, 20.35899
351.1651, 20.27163
351.6472, 20.10471
352.1293, 20.28320
352.6115, 20.93093
353.0936, 21.77074
353.5757, 22.50313
354.0578, 23.17260
354.5399, 23.93290
355.0220, 24.83205
355.5042, 25.88105
355.9863, 27.09080
356.4684, 28.45282
356.9505, 29.95167
357.4326, 31.61212
357.9147, 33.39751
358.3969, 35.23513
358.8790, 37.06466
359.3611, 38.95855
359.8432, 41.06159
360.3253, 43.37893
360.8074, 45.57495
361.2896, 47.28480
361.7717, 48.89937
362.2538, 50.78178
362.7359, 53.28973
363.2180, 55.78716
363.7001, 57.90359
364.1823, 59.79283
364.6644, 61.96992
365.1465, 64.83219
365.6286, 67.85538
366.1107, 70.74273
366.5928, 73.27837
367.0750, 76.07487
367.5571, 79.47780
368.0392, 83.16560
368.5213, 86.61021
369.0034, 89.44008
369.4855, 92.28568
369.9677, 95.35014
370.4498, 98.66095
370.9319, 101.9176
371.4140, 105.2833
371.8961, 108.4882
372.3782, 111.2506
372.8604, 113.5482
373.3425, 115.4255
373.8246, 116.9475
374.3067, 118.0739
374.7888, 118.5564
375.2709, 118.4122
375.7531, 117.5687
376.2352, 115.9732
376.7173, 113.6217
377.1994, 110.5873
377.6815, 106.8078
378.1636, 102.3824
378.6458, 97.53394
379.1279, 92.17412
379.6100, 86.66153
380.0921, 80.98824
380.5742, 75.19257
381.0563, 69.65157
381.5385, 64.38583
382.0206, 59.34523
382.5027, 54.49927
382.9848, 49.83039
383.4669, 45.62209
383.9490, 42.00922
384.4312, 38.84280
384.9133, 35.73569
385.3954, 32.70395
385.8775, 29.85994
386.3596, 27.38117
386.8417, 25.19052
387.3239, 23.07566
387.8060, 20.98040
388.2881, 19.02329
388.7702, 17.35698
389.2523, 15.93402
389.7344, 14.62962
390.2166, 13.35003
390.6987, 12.15607
391.1808, 11.10784
391.6629, 10.20489
392.1450, 9.412979
392.6271, 8.831787
393.1093, 8.322712
393.5914, 7.707664
394.0735, 6.693779
394.5556, 5.755341
395.0377, 5.137585
395.5198, 4.822445
396.0020, 4.565506
396.4841, 4.358456
396.9662, 4.147835
397.4483, 3.886591
397.9304, 3.455692
398.4125, 3.106754
398.8947, 2.923599
399.3768, 2.849922
399.8589, 2.745445
400.3410, 2.608742
400.8231, 2.431835
401.3052, 2.217270
401.7874, 1.973312
402.2695, 1.650286
402.7516, 1.076008
403.2337, 0.5435520
403.7158, 0.4319880
404.1979, 1.045883
404.6800, 1.423061
405.1621, 1.314203
405.6443, 0.7964970
406.1264, 0.4375840
406.6085, 0.2638950
407.0906, 0.1779020
407.5727, 0.1356450
408.0548, 0.1434800
408.5370, 8.7112002E-02
409.0191, 6.6661999E-02
409.5012, 0.2436890
409.9833, 0.2777960
410.4654, 0.1705860
410.9475, 0.1016520
411.4297, 0.1895690
411.9118, 0.3848800
412.3939, 0.5261710
412.8760, 0.6089710
413.3581, 0.6548000
413.8402, 0.6658210
414.3224, 0.6542170
414.8045, 0.6567630
415.2866, 0.7111300
415.7687, 0.7508450
416.2508, 0.6554150
416.7329, 0.4605920
417.2151, 0.3268450
417.6972, 0.3888610
418.1793, 0.5369740
418.6614, 0.6777860
419.1435, 0.8025090
419.6256, 0.8902720
420.1078, 0.9200000
420.5899, 0.9062440
421.0720, 0.8734000
421.5541, 0.8332290
422.0362, 0.7720300
422.5183, 0.6587580
423.0005, 0.4960380
423.4826, 0.3912810
423.9647, 0.4369890
424.4468, 0.5074940
424.9289, 0.5196210
425.4110, 0.4076040
425.8932, 0.3093220
426.3753, 0.2238540
426.8574, 0.1561160
427.3395, 0.1206670
427.8216, 0.1518940
428.3037, 0.1709380
428.7859, 0.1595000
429.2680, 0.1223200
429.7501, 4.1850000E-03
430.2322, 0.2618030
430.7143, 0.5127350
431.1964, 0.5288520
431.6786, 0.2472210
432.1607, 6.7055002E-02
432.6428, 9.0372004E-02
433.1249, 0.2535080
433.6070, 0.3561780
434.0891, 0.3950500
434.5713, 0.4174400
435.0534, 0.4490740
435.5355, 0.4897310
436.0176, 0.5414510
436.4997, 0.6085240
436.9818, 0.6709400
437.4640, 0.7060720
437.9461, 0.7170450
438.4282, 0.7127670
438.9103, 0.6814270
439.3924, 0.6464630
439.8745, 0.6415200
440.3567, 0.6634120
440.8388, 0.6844290
441.3209, 0.6738550
441.8030, 0.6585030
442.2851, 0.6721310
442.7672, 0.7419930
443.2494, 0.7943420
443.7315, 0.7954390
444.2136, 0.7512110
444.6957, 0.6733650
445.1778, 0.4869140
445.6599, 0.3378140
446.1421, 0.2968060
446.6242, 0.3760600
447.1063, 0.4587380
447.5884, 0.5379140
448.0705, 0.6085510
448.5526, 0.6669900
449.0348, 0.7271420
449.5169, 0.7538930
449.9990, 0.7190110
450.4811, 0.6526200
450.9632, 0.6424690
451.4453, 0.7032180
451.9275, 0.7942280
452.4096, 0.9392110
452.8917, 1.156097
453.3738, 1.143566
453.8559, 0.8302270
454.3380, 0.4584200
454.8202, 0.3018740
455.3023, 0.3638340
455.7844, 0.4494090
456.2665, 0.5195940
456.7486, 0.5844040
457.2307, 0.6927490
457.7129, 0.8367810
458.1950, 0.9205070
458.6771, 0.7762410
459.1592, 0.5486550
459.6413, 0.5834430
460.1234, 0.9350150
460.6056, 1.285614
461.0877, 1.286768
461.5698, 1.106396
462.0519, 1.031588
462.5340, 1.335037
463.0161, 1.621361
463.4983, 1.576439
463.9804, 1.270195
464.4625, 1.019287
464.9446, 0.9612350
465.4267, 0.9911860
465.9088, 1.060514
466.3910, 1.192720
466.8731, 1.278828
467.3552, 1.201414
467.8373, 1.097666
468.3194, 1.145279
468.8015, 1.589298
469.2837, 1.890167
469.7658, 1.916529
470.2479, 1.698662
470.7300, 1.522486
471.2121, 1.376898
471.6942, 1.296061
472.1764, 1.329735
472.6585, 1.520121
473.1406, 1.583338
473.6227, 1.475363
474.1048, 1.313490
474.5869, 1.265249
475.0691, 1.327829
475.5512, 1.415487
476.0333, 1.492119
476.5154, 1.576313
476.9975, 1.766745
477.4796, 2.057541
477.9618, 2.272039
478.4439, 2.173983
478.9260, 1.934566
479.4081, 1.903860
479.8902, 2.180944
480.3723, 2.459507
480.8545, 2.428679
481.3366, 2.221775
481.8187, 2.065693
482.3008, 2.055817
482.7829, 2.126390
483.2650, 2.306999
483.7472, 2.572447
484.2293, 2.744682
484.7114, 2.649740
485.1935, 2.524031
485.6756, 2.510941
486.1577, 2.697245
486.6399, 2.856539
487.1220, 2.936388
487.6041, 3.000416
488.0862, 3.125908
488.5683, 3.318394
489.0504, 3.537355
489.5326, 3.785357
490.0147, 4.048634
490.4968, 4.269146
490.9789, 4.451746
491.4610, 4.590591
491.9431, 4.636343
492.4253, 4.583414
492.9074, 4.726086
493.3895, 5.139734
493.8716, 5.570957
494.3537, 5.597633
494.8358, 5.297590
495.3180, 5.133253
495.8001, 5.363173
496.2822, 5.734013
496.7643, 5.852320
497.2464, 5.748444
497.7285, 5.589848
498.2107, 5.445883
498.6928, 5.321619
499.1749, 5.223537
499.6570, 5.156496
500.1391, 5.095871
500.6212, 5.018784
501.1034, 4.943640
501.5855, 4.891420
502.0676, 4.850298
502.5497, 4.850534
503.0318, 4.894814
503.5139, 4.982782
503.9961, 5.118433
504.4782, 5.404854
504.9603, 5.648310
505.4424, 5.763031
505.9245, 5.707293
506.4066, 5.699867
506.8888, 5.753778
507.3709, 5.839121
507.8530, 5.905413
508.3351, 5.928305
508.8172, 6.083475
509.2993, 6.456846
509.7815, 6.927052
510.2636, 7.156357
510.7457, 7.149523
511.2278, 7.181669
511.7099, 7.421217
512.1920, 7.799326
512.6741, 8.186516
513.1563, 8.587776
513.6384, 8.997395
514.1205, 9.445511
514.6026, 9.885618
515.0847, 10.24734
515.5668, 10.47388
516.0490, 10.68126
516.5311, 10.96595
517.0132, 11.27483
517.4953, 11.51322
517.9774, 11.60669
518.4595, 11.66822
518.9417, 11.73608
519.4238, 11.81181
519.9059, 11.88472
520.3880, 12.03854
520.8701, 12.12704
521.3522, 12.04927
521.8344, 11.62015
522.3165, 11.45374
522.7986, 11.73262
523.2807, 12.11629
523.7628, 12.00130
524.2449, 11.29557
524.7271, 10.51898
525.2092, 9.767387
525.6913, 9.073059
526.1734, 8.559299
526.6555, 8.230724
527.1376, 7.935574
527.6198, 7.603918
528.1019, 7.237091
528.5840, 6.777626
529.0661, 6.204174
529.5482, 5.646740
530.0303, 5.189137
530.5125, 4.838259
530.9946, 4.572630
531.4767, 4.482620
531.9588, 4.401512
532.4409, 4.154963
532.9230, 3.808657
533.4052, 3.571608
533.8873, 3.669050
534.3694, 3.764584
534.8515, 3.675739
535.3336, 3.325184
535.8157, 3.169878
536.2979, 3.328228
536.7800, 3.570747
537.2621, 3.745100
537.7442, 3.842152
538.2263, 3.898840
538.7084, 3.915722
539.1906, 3.910385
539.6727, 3.875113
540.1548, 3.792591
540.6369, 3.849739
541.1190, 4.192785
541.6011, 4.690475
542.0833, 4.905846
542.5654, 4.854612
543.0475, 4.819613
543.5296, 5.079828
544.0117, 5.466208
544.4938, 5.683746
544.9760, 5.669405
545.4581, 5.673420
545.9402, 5.899006
546.4223, 6.246567
546.9044, 6.588964
547.3865, 6.958096
547.8687, 7.236773
548.3508, 7.266148
548.8329, 7.156023
549.3150, 7.258621
549.7971, 7.935062
550.2792, 8.525917
550.7614, 8.817337
551.2435, 8.785040
551.7256, 8.715805
552.2077, 8.598579
552.6898, 8.463915
553.1719, 8.366482
553.6541, 8.332338
554.1362, 8.118305
554.6183, 7.676102
555.1004, 7.103865
555.5825, 6.502991
556.0646, 5.891188
556.5468, 5.438156
557.0289, 5.316874
557.5110, 5.292324
557.9931, 4.959246
558.4752, 4.372608
558.9573, 3.832380
559.4395, 3.565554
559.9216, 3.390842
560.4037, 3.128448
560.8858, 2.741358
561.3679, 2.431229
561.8500, 2.368614
562.3322, 2.372944
562.8143, 2.286226
563.2964, 1.956329
563.7785, 1.695164
564.2606, 1.550003
564.7427, 1.477472
565.2249, 1.397284
565.7070, 1.312273
566.1891, 1.210472
566.6712, 1.059208
567.1533, 0.8840030
567.6354, 0.8658580
568.1176, 1.028131
568.5997, 1.204327
569.0818, 1.334751
569.5639, 1.392973
570.0460, 1.207436
570.5281, 0.7389550
571.0103, 0.2972640
571.4924, 0.2558140
571.9745, 0.4441050
572.4566, 0.5567260
572.9387, 0.4478680
573.4208, 0.3287470
573.9030, 0.3802600
574.3851, 0.5207980
574.8672, 0.5715690
575.3493, 0.3691180
575.8314, 0.1673530
576.3135, 5.4616999E-02
576.7957, 3.5355002E-02
577.2778, 5.5291999E-02
577.7599, 0.1927800
578.2420, 0.2801420
578.7241, 0.2118720
579.2062, 6.8640001E-02
579.6884, 0.2849480
580.1705, 0.4555210
580.6526, 0.5294840
581.1347, 0.3813340
581.6168, 2.1118000E-02
582.0989, 0.2072470
582.5811, 0.1976850
583.0632, 8.5524000E-02
583.5453, 0.1067180
584.0274, 0.2183020
584.5095, 0.2613640
584.9916, 7.6916002E-02
585.4738, 0.1590310
585.9559, 0.3101270
586.4380, 0.3706280
586.9201, 0.3342060
587.4022, 1.5627000E-02
587.8843, 0.2697120
588.3665, 0.2736820
588.8486, 0.1737210
589.3307, 0.4567180
589.8128, 0.3776110
590.2949, 0.1794720
590.7770, 6.7579001E-02
591.2592, 6.3786000E-02
591.7413, 0.1021160
592.2234, 0.2086730
592.7055, 0.3259050
593.1876, 0.3051200
593.6697, 0.1333100
594.1519, 1.8351000E-02
594.6340, 9.0573996E-02
595.1161, 9.3987003E-02
595.5982, 2.3668000E-02
596.0803, 0.1118030
596.5624, 0.2308350
597.0446, 0.2895830
597.5267, 0.2951930
598.0088, 0.2518770
598.4909, 0.1593460
598.9730, 3.5578001E-02
599.4551, 0.1874520
599.9373, 0.3968980
600.4194, 0.4809880
600.9015, 0.2984620
601.3836, 0.1663930
601.8657, 0.1307580
602.3478, 0.1729890
602.8300, 0.2834150
603.3121, 0.5508750
603.7942, 0.7066250
604.2763, 0.6516400
604.7584, 0.4544470
605.2405, 0.4111390
605.7227, 0.5450760
606.2048, 0.6650300
606.6869, 0.6324650
607.1690, 0.5055730
607.6511, 0.5086630
608.1332, 0.6430930
608.6154, 0.7584780
609.0975, 0.6695370
609.5796, 0.5134010
610.0617, 0.4971310
610.5438, 0.7027360
611.0259, 0.8775480
611.5081, 0.8420580
611.9902, 0.7132300
612.4723, 0.6296500
612.9544, 0.6100650
613.4365, 0.6554780
613.9186, 0.8192100
614.4008, 1.040709
614.8829, 1.183702
615.3650, 1.233225
615.8471, 1.224697
616.3292, 1.126167
616.8113, 0.9698890
617.2935, 1.015234
617.7756, 1.286888
618.2577, 1.561951
618.7398, 1.666302
619.2219, 1.660049
619.7040, 1.719284
620.1862, 1.856876
620.6683, 1.998970
621.1504, 2.071558
621.6325, 2.115892
622.1146, 2.187229
622.5967, 2.307829
623.0789, 2.435400
623.5610, 2.566942
624.0431, 2.690643
624.5252, 2.789410
625.0073, 2.865520
625.4894, 2.905252
625.9716, 2.840029
626.4537, 2.741835
626.9358, 2.886158
627.4179, 3.383471
627.9000, 3.811890
628.3821, 3.956728
628.8643, 3.882830
629.3464, 4.033564
629.8285, 4.413109
630.3106, 4.837709
630.7927, 5.235254
631.2748, 5.565222
631.7570, 5.695190
632.2391, 5.594049
632.7212, 5.548811
633.2033, 5.754837
633.6854, 6.138748
634.1675, 6.641491
634.6497, 7.405571
635.1318, 8.018702
635.6139, 8.199827
636.0960, 8.217449
636.5781, 8.492725
637.0602, 9.188206
637.5424, 9.868299
638.0245, 10.46288
638.5066, 11.01294
638.9887, 11.63780
639.4708, 12.33858
639.9529, 13.19341
640.4351, 14.29724
640.9172, 15.57003
641.3993, 16.70001
641.8814, 17.69519
642.3635, 18.73545
642.8456, 19.85430
643.3278, 21.11033
643.8099, 22.60152
644.2920, 24.33753
644.7741, 26.23733
645.2562, 28.28653
645.7383, 30.43718
646.2205, 32.63685
646.7026, 35.02813
647.1847, 37.19349
647.6668, 38.84372
648.1489, 40.48541
648.6310, 42.87606
649.1132, 46.26541
649.5953, 49.36348
650.0774, 51.84950
650.5595, 54.06477
651.0416, 56.85587
651.5237, 60.19386
652.0059, 63.66695
652.4880, 67.10074
652.9701, 70.58731
653.4522, 74.37154
653.9343, 78.43142
654.4164, 82.52981
654.8986, 86.57873
655.3807, 90.60789
655.8628, 94.65562
656.3449, 98.75909
656.8270, 102.5972
657.3091, 106.1561
657.7913, 109.4061
658.2734, 112.3709
658.7555, 115.2551
659.2376, 117.2298
659.7197, 118.3021
660.2018, 118.4475
660.6840, 117.6520
661.1661, 115.9142
661.6482, 113.1321
662.1303, 109.2032
662.6124, 104.4481
663.0945, 99.03413
663.5767, 93.13612
664.0588, 87.14735
664.5409, 81.14011
665.0230, 75.26685
665.5051, 69.59984
665.9872, 64.15974
666.4694, 58.99615
666.9515, 54.00333
667.4336, 49.41692
667.9157, 45.35088
668.3978, 41.79487
668.8799, 38.59317
669.3621, 35.85770
669.8442, 33.23621
670.3263, 30.46650
670.8084, 27.58037
671.2905, 25.28242
671.7726, 23.60851
672.2548, 22.17953
672.7369, 20.66579
673.2190, 19.18327
673.7011, 18.05593
674.1832, 17.34878
674.6653, 16.66375
675.1475, 15.62769
675.6296, 14.48506
676.1117, 13.51363
676.5938, 12.86371
677.0759, 12.21868
677.5580, 11.49906
678.0402, 10.75028
678.5223, 10.01459
679.0044, 9.223742
679.4865, 8.597918
679.9686, 8.201534
680.4507, 7.950535
680.9329, 7.663771
681.4150, 7.343952
681.8971, 6.967216
682.3792, 6.472763
682.8613, 5.965851
683.3434, 5.620903
683.8256, 5.423290
684.3077, 5.286064
684.7898, 5.278099
685.2719, 5.223804
685.7540, 4.940882
686.2361, 4.447227
686.7183, 4.052969
687.2004, 3.945505
687.6825, 3.862787
688.1646, 3.672016
688.6467, 3.346872
689.1288, 3.102846
689.6110, 2.951530
690.0931, 2.859650
690.5752, 2.797609
691.0573, 2.767611
691.5394, 2.834661
692.0215, 3.022385
692.5037, 3.158754
692.9858, 2.955690
693.4679, 2.600941
693.9500, 2.441088
694.4321, 2.629396
694.9142, 2.824686
695.3964, 2.816551
695.8785, 2.701841
696.3606, 2.604525
696.8427, 2.537493
697.3248, 2.507715
697.8069, 2.548252
698.2891, 2.612955
698.7712, 2.593582
699.2533, 2.456573
699.7354, 2.380913
700.2175, 2.446917
700.6996, 2.570442
701.1818, 2.527742
701.6639, 2.338957
702.1460, 2.140591
702.6281, 1.998701
703.1102, 1.887466
703.5923, 1.769096
704.0745, 1.651150
704.5566, 1.571777
705.0387, 1.631454
705.5208, 1.660057
706.0029, 1.519775
706.4850, 1.180506
706.9672, 1.031830
707.4493, 1.185387
707.9314, 1.371492
708.4135, 1.462315
708.8956, 1.456974
709.3777, 1.328806
709.8599, 1.057741
710.3420, 0.7872310
710.8241, 0.6385770
711.3062, 0.5913220
711.7883, 0.6203820
712.2704, 0.7353210
712.7525, 0.8201520
713.2346, 0.7329560
713.7167, 0.5973050
714.1989, 0.5515420
714.6810, 0.7195360
715.1631, 0.8054900
715.6452, 0.6445960
716.1273, 0.4381580
716.6094, 0.4337880
717.0916, 0.7745700
717.5737, 0.8433900
718.0558, 0.4632320
718.5379, 6.5226004E-02
719.0200, 0.1490860
719.5021, 0.1436860
719.9843, 0.3122960
720.4664, 0.1472740
720.9485, 0.1298390
721.4306, 0.2858180
721.9127, 0.3432540
722.3948, 0.3523350
722.8770, 0.3367500
723.3591, 0.2999320
723.8412, 0.2015480
724.3233, 6.5312997E-02
724.8054, 2.0120000E-03
725.2875, 4.9368002E-02
725.7697, 0.1035210
726.2518, 0.1430740
726.7339, 0.1553900
727.2160, 2.5898000E-02
727.6981, 0.2632900
728.1802, 0.4536190
728.6624, 0.2960410
729.1445, 2.9320000E-02
729.6266, 0.1297530
730.1087, 2.2844000E-02
730.5908, 0.1238000
731.0729, 0.2965720
731.5551, 0.4055820
732.0372, 0.3534530
732.5193, 0.1220720
733.0014, 5.7558000E-02
733.4835, 0.1667630
733.9656, 0.2164230
734.4478, 0.1945480
734.9299, 9.6266001E-02
735.4120, 7.4400000E-02
735.8941, 0.3576220
736.3762, 0.5774020
736.8583, 0.4843620
737.3405, 0.1787090
737.8226, 0.1085800
738.3047, 0.3292940
738.7868, 0.6132600
739.2689, 0.8861640
739.7510, 1.058580
740.2332, 0.9920560
740.7153, 0.5359040
741.1974, 0.1687790
741.6795, 4.5763001E-02
742.1616, 7.1099997E-02
742.6437, 0.1524370
743.1259, 0.2993300
743.6080, 0.4646850
744.0901, 0.6760750
744.5722, 0.8728500
745.0543, 0.8958550
745.5364, 0.7586590
746.0186, 0.7119730
746.5007, 0.8280490
746.9828, 0.9910680
747.4649, 1.096178
747.9470, 1.138674
748.4291, 1.120975
748.9113, 0.9403060
749.3934, 0.8248790
749.8755, 0.9156950
750.3576, 1.119139
750.8397, 1.235506
751.3218, 1.190857
751.8040, 1.194851
752.2861, 1.300188
752.7682, 1.458372
753.2503, 1.545311
753.7324, 1.570204
754.2145, 1.635487
754.6967, 1.788364
755.1788, 1.947708
755.6609, 2.013090
756.1430, 2.001183
756.6251, 1.939539
757.1072, 1.786900
757.5894, 1.642250
758.0715, 1.574116
758.5536, 1.558266
759.0357, 1.471209
759.5178, 1.197296
759.9999, 1.042139
760.4821, 1.151810
760.9642, 1.444067
761.4463, 1.509464
761.9284, 1.340464
762.4105, 1.157469
762.8926, 1.048641
763.3748, 1.011410
763.8569, 1.115105
764.3390, 1.319418
764.8211, 1.391932
765.3032, 1.004347
765.7853, 0.6190620
766.2675, 0.5402620
766.7496, 0.7781120
767.2317, 0.8884940
767.7138, 0.7852060
768.1959, 0.6384200
768.6780, 0.4965380
769.1602, 0.3654440
769.6423, 0.3571430
770.1244, 0.4806790
770.6065, 0.6045210
771.0886, 0.6309220
771.5707, 0.6096550
772.0529, 0.6397020
772.5350, 0.7075580
773.0171, 0.7044030
773.4992, 0.3726980
773.9813, 9.5740996E-02
774.4634, 0.2003570
774.9456, 0.7933640
775.4277, 1.136465
775.9098, 1.098860
776.3919, 0.9478590
776.8740, 0.8196050
777.3561, 0.7248880
777.8383, 0.5936010
778.3204, 0.4224620
778.8025, 0.2522010
779.2846, 8.5267998E-02
779.7667, 4.2082001E-02
780.2488, 3.6561999E-02
780.7310, 0.1122090
781.2131, 0.2260130
781.6952, 0.1600590
782.1773, 6.3473001E-02
782.6594, 3.8477000E-02
783.1415, 0.1152880
783.6237, 0.1829550
784.1058, 0.2556440
784.5879, 0.2975980
785.0700, 0.2593310
785.5521, 0.1363720
786.0342, 0.1325380
786.5164, 0.2644710
786.9985, 0.4016250
787.4806, 0.4253900
787.9627, 0.3845650
788.4448, 0.3342650
788.9269, 0.2814940
789.4091, 0.2130220
789.8912, 5.7326999E-02
790.3733, 7.2144002E-02
790.8554, 7.6378003E-02
791.3375, 0.1076890
791.8196, 0.2332020
792.3018, 0.3113730
792.7839, 0.3296930
793.2660, 0.2284410
793.7481, 2.1856001E-02
794.2302, 4.8675999E-02
794.7123, 4.3228000E-02
795.1945, 0.1675300
795.6766, 0.1954920
796.1587, 0.1917300
796.6408, 0.2606160
797.1229, 0.4469430
797.6050, 0.5543350
798.0872, 0.4625760
798.5693, 0.2990610
799.0514, 0.1548960
799.5335, 1.4095000E-02
800.0156, 3.4924999E-02
800.4977, 4.4376001E-02
800.9799, 0.1263890
801.4620, 2.7621999E-02
801.9441, 0.1876790
802.4262, 0.1633260
802.9083, 0.1560270
803.3904, 0.4377060
803.8726, 0.2733690
804.3547, 6.9350000E-03
804.8368, 9.2810001E-03
805.3189, 0.4564270
805.8010, 0.7365680
806.2831, 0.5213550
806.7653, 0.1930070
807.2474, 1.6022000E-02
807.7295, 0.1085590
808.2116, 3.8206000E-02
808.6937, 0.2382160
809.1758, 0.5049510
809.6580, 0.5484120
810.1401, 0.4210300
810.6222, 0.2150990
811.1043, 6.9807000E-02
811.5864, 0.2762530
812.0685, 0.2736760
812.5507, 0.1615070
813.0328, 2.8460000E-03
813.5149, 0.2699680
813.9970, 0.3871520
814.4791, 0.2629380
814.9612, 9.2205003E-02
815.4434, 4.6649999E-03
815.9255, 1.8220000E-03
816.4076, 6.7736000E-02
816.8897, 0.2119410
817.3718, 0.3301850
817.8539, 0.2854750
818.3361, 0.1702160
818.8182, 0.1316380
819.3003, 0.1909330
819.7824, 0.2479250
820.2645, 0.2859630
820.7466, 0.2833670
821.2288, 0.1979240
821.7109, 1.0866000E-02
822.1930, 6.8383999E-02
822.6751, 8.4398001E-02
823.1572, 0.2432160
823.6393, 0.2259730
824.1215, 7.5029001E-02
824.6036, 2.5901999E-02
825.0857, 8.5804000E-02
825.5678, 0.1612930
826.0499, 0.1934970
826.5320, 0.1961270
827.0142, 0.1826610
827.4963, 0.1550560
827.9784, 9.6983001E-02
828.4605, 8.9028999E-02
828.9426, 0.2126620
829.4247, 0.1606370
829.9069, 7.2802998E-02
830.3890, 0.2110650
830.8711, 0.2456510
831.3532, 0.2496890
831.8353, 0.2612900
832.3174, 0.2835140
832.7996, 0.3131790
833.2817, 0.3485970
833.7638, 0.3751870
834.2459, 0.3708130
834.7280, 0.3676090
835.2101, 0.3785930
835.6923, 0.4059790
836.1744, 0.4682430
836.6565, 0.5947110
837.1386, 0.6935460
837.6207, 0.6920740
838.1028, 0.6372170
838.5850, 0.7494300
839.0671, 1.008757
839.5492, 1.251051
840.0313, 1.303804
840.5134, 1.345293
840.9955, 1.591745
841.4777, 1.995213
841.9598, 2.331669
842.4419, 2.492826
842.9240, 2.620070
843.4061, 2.756306
843.8882, 2.892950
844.3704, 2.966324
844.8525, 2.956717
845.3346, 3.047564
845.8167, 3.367952
846.2988, 3.769070
846.7809, 3.938202
847.2631, 3.956728
847.7452, 4.064571
848.2273, 4.374807
848.7094, 4.795223
849.1915, 5.367306
849.6736, 6.016142
850.1558, 6.582115
850.6379, 7.130644
851.1200, 7.421770
851.6021, 7.325891
852.0842, 7.047548
852.5663, 7.053923
853.0485, 7.282928
853.5306, 7.433790
854.0127, 7.397871
854.4948, 7.279310
854.9769, 7.228243
855.4590, 7.137241
855.9412, 6.845507
856.4233, 6.064831
856.9054, 5.414583
857.3875, 4.956879
857.8696, 4.624386
858.3517, 4.382885
858.8339, 4.237234
859.3160, 3.941513
859.7981, 3.408958
860.2802, 2.915617
860.7623, 2.847450
861.2444, 2.987797
861.7266, 3.020439
862.2087, 2.860874
862.6908, 2.630455
863.1729, 2.270329
863.6550, 1.934036
864.1371, 1.763102
864.6193, 1.813702
865.1014, 1.798910
865.5835, 1.685486
866.0656, 1.624651
866.5477, 1.829107
867.0298, 2.169668
867.5120, 2.350071
867.9941, 2.332222
868.4762, 2.159389
868.9583, 1.582783
869.4404, 1.049351
869.9225, 0.9418850
870.4047, 1.378416
870.8868, 1.700228
871.3689, 1.868927
871.8510, 1.966692
872.3331, 2.031992
872.8152, 2.063402
873.2974, 2.047422
873.7795, 1.987247
874.2616, 1.927992
874.7437, 1.849134
875.2258, 1.819815
875.7079, 1.952925
876.1901, 2.208326
876.6722, 2.366577
877.1543, 2.317842
877.6364, 2.240559
878.1185, 2.152716
878.6006, 2.070204
879.0828, 2.058758
879.5649, 2.109888
880.0470, 2.201761
880.5291, 2.380171
881.0112, 2.563601
881.4933, 2.576370
881.9755, 2.497772
882.4576, 2.515007
882.9397, 2.926189
883.4218, 3.205870
883.9039, 3.076183
884.3860, 2.788803
884.8682, 2.734686
885.3503, 2.968929
885.8324, 3.141710
886.3145, 3.191885
886.7966, 3.173246
887.2787, 3.136885
887.7609, 3.107819
888.2430, 3.100214
888.7251, 3.105846
889.2072, 3.175320
889.6893, 3.464520
890.1714, 3.743021
890.6536, 3.788443
891.1357, 3.507830
891.6178, 3.323734
892.0999, 3.240070
892.5820, 3.252785
893.0641, 3.458151
893.5463, 3.739925
894.0284, 3.744440
894.5105, 3.468252
894.9926, 3.222076
895.4747, 3.239994
895.9568, 3.306980
896.4390, 3.276327
896.9211, 3.141476
897.4032, 3.070126
897.8853, 3.083158
898.3674, 3.111858
898.8495, 3.140310
899.3317, 3.157307
899.8138, 3.111773
900.2959, 3.017967
900.7780, 2.944233
901.2601, 2.960033
901.7422, 2.976187
902.2244, 2.903744
902.7065, 2.789999
903.1886, 2.764299
903.6707, 2.900063
904.1528, 2.998791
904.6349, 3.023182
905.1171, 3.007296
905.5992, 3.026937
906.0813, 3.065605
906.5634, 3.022038
907.0455, 2.844360
907.5276, 2.675457
908.0098, 2.676037
908.4919, 2.731052
908.9740, 2.709381
909.4561, 2.547585
909.9382, 2.381353
910.4203, 2.178568
910.9025, 2.027533
911.3846, 2.039822
911.8667, 2.194500
912.3488, 2.269320
912.8309, 2.255919
913.3130, 2.196127
913.7952, 2.080700
914.2773, 1.963163
914.7594, 1.901207
915.2415, 1.896988
915.7236, 1.874165
916.2057, 1.815042
916.6879, 1.742849
917.1700, 1.657734
917.6521, 1.567070
918.1342, 1.513500
918.6163, 1.493076
919.0984, 1.461121
919.5806, 1.373438
920.0627, 1.289484
920.5448, 1.281761
921.0269, 1.318981
921.5090, 1.335081
921.9911, 1.311029
922.4733, 1.272669
922.9554, 1.261387
923.4375, 1.199413
923.9196, 0.8682250
924.4017, 0.2969040
924.8839, 8.3796002E-02
925.3660, 0.3670850
925.8481, 0.7450900
926.3302, 0.8881680
926.8123, 0.8812600
927.2944, 0.7911420
927.7766, 0.5761320
928.2587, 0.4979360
928.7408, 0.7156770
929.2229, 0.8890900
929.7050, 0.7523170
930.1871, 0.3352090
930.6693, 0.1854990
931.1514, 0.2977560
931.6335, 0.4199730
932.1156, 0.3434050
932.5977, 0.2270130
933.0798, 0.2507460
933.5620, 0.3782290
934.0441, 0.4107070
934.5262, 0.2116740
935.0083, 3.4747999E-02
935.4904, 8.1891999E-02
935.9725, 0.1357860
936.4547, 7.8084998E-02
936.9368, 7.1184002E-02
937.4189, 9.6015997E-02
937.9010, 0.1329540
938.3831, 0.3430540
938.8652, 0.1488650
939.3474, 0.1687620
939.8295, 0.2170120
940.3116, 0.3811780
940.7937, 0.7004760
941.2758, 0.6030900
941.7579, 0.3836310
942.2401, 0.3031410
942.7222, 0.3452000
943.2043, 0.3785250
943.6864, 0.3961330
944.1685, 0.3982180
944.6506, 0.3851170
945.1328, 0.3568400
945.6149, 0.2957250
946.0970, 0.2044350
946.5791, 0.1805290
947.0612, 0.3003270
947.5433, 0.3511660
948.0255, 0.2377430
948.5076, 2.2644000E-02
948.9897, 0.1182310
949.4718, 0.1919000
949.9539, 0.2336770
950.4360, 0.2577590
950.9182, 0.2554300
951.4003, 0.1656280
951.8824, 6.4487003E-02
952.3645, 8.5345998E-02
952.8466, 0.3623350
953.3287, 0.4761090
953.8109, 0.3423770
954.2930, 0.1862750
954.7751, 0.3197540
955.2572, 0.6390550
955.7393, 0.8111230
956.2214, 0.8003120
956.7036, 0.7263620
957.1857, 0.5826070
957.6677, 0.4707580
958.1498, 0.4819110
958.6320, 0.6170790
959.1141, 0.7155700
959.5962, 0.7624950
960.0783, 0.8261810
960.5604, 0.9604950
961.0425, 1.110361
961.5247, 1.107168
962.0068, 1.013895
962.4889, 1.021494
962.9710, 1.395971
963.4531, 1.676277
963.9352, 1.545420
964.4174, 1.285446
964.8995, 1.338339
965.3816, 1.819839
965.8637, 2.053732
966.3458, 1.946556
966.8279, 1.728462
967.3101, 1.541954
967.7922, 1.457514
968.2743, 1.684784
968.7564, 2.276611
969.2385, 2.657207
969.7206, 2.368807
970.2028, 2.065605
970.6849, 2.064304
971.1670, 2.323103
971.6491, 2.486458
972.1312, 2.551533
972.6133, 2.567354
973.0955, 2.509546
973.5776, 2.463791
974.0597, 2.538811
974.5418, 2.699024
975.0239, 2.874887
975.5060, 3.116552
975.9882, 3.267305
976.4703, 3.288916
976.9524, 3.243393
977.4345, 3.143745
977.9166, 3.017576
978.3987, 3.179714
978.8809, 3.680973
979.3630, 4.165077
979.8451, 4.279875
980.3272, 4.288589
980.8093, 4.435581
981.2914, 4.755604
981.7736, 4.929970
982.2557, 4.801861
982.7378, 4.867830
983.2199, 5.420620
983.7020, 6.254778
984.1841, 6.875542
984.6663, 7.299393
985.1484, 7.600811
985.6305, 7.706398
986.1126, 7.839212
986.5947, 7.993040
987.0768, 8.299446
987.5590, 8.961950
988.0411, 10.13846
988.5232, 11.08320
989.0053, 11.73020
989.4874, 12.29447
989.9695, 12.92815
990.4517, 13.65080
990.9338, 14.48974
991.4159, 15.44981
991.8980, 16.59060
992.3801, 18.05428
992.8622, 19.55392
993.3444, 20.91865
993.8265, 22.24134
994.3086, 23.86169
994.7907, 25.78972
995.2728, 28.00354
995.7549, 30.44605
996.2371, 33.19675
996.7192, 36.33383
997.2013, 39.83198
997.6834, 43.63077
998.1655, 47.55265
998.6476, 51.99406
999.1298, 57.12157
999.6119, 62.60094
1000.094, 67.94958
1000.576, 73.31107
1001.058, 79.12077
1001.540, 85.39024
1002.022, 91.81633
1002.505, 98.11121
1002.987, 104.5477
1003.469, 111.0500
1003.951, 117.7782
1004.433, 124.8960
1004.915, 132.4268
1005.397, 140.4118
1005.879, 148.8918
1006.362, 157.9803
1006.844, 168.1922
1007.326, 179.1084
1007.808, 190.3982
1008.290, 201.8900
1008.772, 213.6885
1009.254, 226.5448
1009.736, 238.9008
1010.218, 250.2844
1010.701, 260.6598
1011.183, 268.4795
1011.665, 273.8318
1012.147, 275.9971
1012.629, 274.8531
1013.111, 270.0723
1013.593, 260.6787
1014.075, 247.3589
1014.557, 232.1368
1015.040, 214.0988
1015.522, 195.9981
1016.004, 177.8309
1016.486, 160.2917
1016.968, 144.1410
1017.450, 129.3493
1017.932, 116.3376
1018.414, 105.3049
1018.897, 95.48495
1019.379, 86.46073
1019.861, 78.59274
1020.343, 72.25195
1020.825, 67.30882
1021.307, 62.65955
1021.789, 58.26578
1022.271, 54.41203
1022.753, 51.21972
1023.236, 48.56130
1023.718, 46.46934
1024.200, 44.73600
1024.682, 42.99504
1025.164, 41.02808
1025.646, 39.24210
1026.128, 37.71940
1026.610, 36.32309
1027.093, 34.88918
1027.575, 33.46228
1028.057, 32.41040
1028.539, 31.72866
1029.021, 31.00609
1029.503, 29.90628
1029.985, 28.76279
1030.467, 27.76888
1030.949, 26.90487
1031.432, 26.05757
1031.914, 25.25241
1032.396, 24.35449
1032.878, 23.33236
1033.360, 22.23817
1033.842, 21.07291
1034.324, 19.93208
1034.806, 18.98362
1035.289, 18.30580
1035.771, 17.58043
1036.253, 16.65773
1036.735, 15.74274
1037.217, 14.92395
1037.699, 14.19358
1038.181, 13.57124
1038.663, 13.04039
1039.146, 12.51051
1039.628, 11.91600
1040.110, 11.31871
1040.592, 10.72021
1041.074, 10.16164
1041.556, 9.718662
1042.038, 9.459545
1042.520, 9.080311
1043.002, 8.543999
1043.484, 7.997028
1043.967, 7.561626
1044.449, 7.213783
1044.931, 6.910866
1045.413, 6.648163
1045.895, 6.400417
1046.377, 6.213642
1046.859, 5.960194
1047.341, 5.562256
1047.824, 5.108437
1048.306, 4.840424
1048.788, 4.728786
1049.270, 4.563866
1049.752, 4.277584
1050.234, 4.004200
1050.716, 3.864491
1051.198, 3.775974
1051.681, 3.680538
1052.163, 3.584774
1052.645, 3.364326
1053.127, 2.980644
1053.609, 2.659985
1054.091, 2.561443
1054.573, 2.568211
1055.055, 2.521633
1055.537, 2.425358
1056.020, 2.286587
1056.502, 2.048038
1056.984, 1.851589
1057.466, 1.716888
1057.948, 1.619793
1058.430, 1.560371
1058.912, 1.523006
1059.394, 1.373386
1059.876, 1.113960
1060.359, 0.9267160
1060.841, 1.003490
1061.323, 1.118275
1061.805, 1.164429
1062.287, 1.134998
1062.769, 0.9824090
1063.251, 0.6719470
1063.733, 0.5111430
1064.216, 0.5947820
1064.698, 0.7434220
1065.180, 0.7407130
1065.662, 0.6791210
1066.144, 0.7036020
1066.626, 0.8737240
1067.108, 0.8759420
1067.590, 0.5962450
1068.073, 0.3255160
1068.555, 0.1935390
1069.037, 0.1693340
1069.519, 0.1843720
1070.001, 0.2333220
1070.483, 0.2985630
1070.965, 0.3763350
1071.447, 0.4630280
1071.929, 0.6359630
1072.411, 0.7568190
1072.894, 0.6615120
1073.376, 0.3244670
1073.858, 0.1518100
1074.340, 0.1528530
1074.822, 0.1884820
1075.304, 0.2281740
1075.786, 0.2017170
1076.268, 6.9935001E-02
1076.751, 0.4626900
1077.233, 0.5314370
1077.715, 8.4533997E-02
1078.197, 0.2142770
1078.679, 0.2776870
1079.161, 0.2143500
1079.643, 8.9189997E-03
1080.125, 0.2486060
1080.608, 0.3282950
1081.090, 0.1998330
1081.572, 6.9328003E-02
1082.054, 9.5370002E-03
1082.536, 9.4884999E-02
1083.018, 0.1907010
1083.500, 0.2646540
1083.982, 0.2585770
1084.464, 0.2001020
1084.947, 0.2479320
1085.429, 0.5259150
1085.911, 0.7174700
1086.393, 0.4708520
1086.875, 9.9806003E-02
1087.357, 0.1149230
1087.839, 0.1590940
1088.321, 8.3407998E-02
1088.803, 0.1242600
1089.286, 0.2692870
1089.768, 0.2131610
1090.250, 7.3904000E-02
1090.732, 6.9948003E-02
1091.214, 0.2000450
1091.696, 0.2761140
1092.178, 0.2733100
1092.660, 0.2522450
1093.142, 0.2107660
1093.625, 0.1552450
1094.107, 0.1000790
1094.589, 4.0610999E-02
1095.071, 5.8405001E-02
1095.553, 0.1847520
1096.035, 0.2566260
1096.517, 0.1873020
1096.999, 0.1523720
1097.482, 0.1938040
1097.964, 0.2497290
1098.446, 0.1398850
1098.928, 7.6362997E-02
1099.410, 5.4145999E-02
1099.892, 0.2622200
1100.374, 0.5635550
1100.856, 0.6642930
1101.339, 0.6797870
1101.821, 0.6562230
1102.303, 0.6057090
1102.785, 0.5628760
1103.267, 0.5312520
1103.749, 0.4820610
1104.231, 0.3906080
1104.713, 0.2957360
1105.195, 0.2074390
1105.677, 0.1541210
1106.160, 0.1848300
1106.642, 0.3455620
1107.124, 0.4267350
1107.606, 0.4023300
1108.088, 0.3400400
1108.570, 0.2271310
1109.052, 0.1525690
1109.534, 0.3687970
1110.017, 0.7210390
1110.499, 0.8808840
1110.981, 0.5144770
1111.463, 0.3401580
1111.945, 0.5100420
1112.427, 0.6997300
1112.909, 0.5602550
1113.391, 0.2245310
1113.874, 0.2367480
1114.356, 0.5381550
1114.838, 0.7158970
1115.320, 0.4017940
1115.802, 0.1402630
1116.284, 0.1448570
1116.766, 0.2691710
1117.248, 0.3038920
1117.730, 0.2596720
1118.213, 0.3305400
1118.695, 0.5383630
1119.177, 0.7111380
1119.659, 0.7007240
1120.141, 0.6291870
1120.623, 0.5189380
1121.105, 0.4154780
1121.587, 0.5011250
1122.069, 0.8054890
1122.552, 1.019735
1123.034, 1.077637
1123.516, 1.028067
1123.998, 0.8682730
1124.480, 0.6666320
1124.962, 0.4758660
1125.444, 0.3013950
1125.926, 0.2143440
1126.409, 0.2277870
1126.891, 0.2843650
1127.373, 0.3778440
1127.855, 0.4781270
1128.337, 0.5687940
1128.819, 0.6239830
1129.301, 0.5822390
1129.783, 0.3795890
1130.266, 0.2442720
1130.748, 0.1950910
1131.230, 0.2150330
1131.712, 0.3366280
1132.194, 0.4972270
1132.676, 0.4699950
1133.158, 0.3265190
1133.640, 0.2797070
1134.122, 0.5611950
1134.604, 0.7021500
1135.087, 0.5725770
1135.569, 0.3399700
1136.051, 2.2305001E-02
1136.533, 0.3347300
1137.015, 0.2822150
1137.497, 0.1233440
1137.979, 0.4363900
1138.461, 0.3918320
1138.944, 0.2457280
1139.426, 2.5501000E-02
1139.908, 0.2595390
1140.390, 0.1919590
1140.872, 0.1781200
1141.354, 0.4439790
1141.836, 0.5758020
1142.318, 0.5360810
1142.801, 6.7887999E-02
1143.283, 0.3653980
1143.765, 0.3780080
1144.247, 9.1725998E-02
1144.729, 0.1072030
1145.211, 0.2139760
1145.693, 0.2424320
1146.175, 0.1901280
1146.657, 0.1247900
1147.140, 9.2837997E-02
1147.622, 9.1293000E-02
1148.104, 0.1336480
1148.586, 0.2125070
1149.068, 0.2520640
1149.550, 0.2505050
1150.032, 0.2117140
1150.514, 0.1201460
1150.996, 4.3063998E-02
1151.479, 9.0016998E-02
1151.961, 0.1959550
1152.443, 0.2996010
1152.925, 0.4021190
1153.407, 0.3504300
1153.889, 2.0969000E-02
1154.371, 0.1221960
1154.853, 0.1886410
1155.336, 0.6380200
1155.818, 0.5902330
1156.300, 0.2750300
1156.782, 0.1184350
1157.264, 0.3026350
1157.746, 0.3856070
1158.228, 0.2339190
1158.710, 0.1343380
1159.193, 0.3011230
1159.675, 0.5826740
1160.157, 0.5305560
1160.639, 0.2619930
1161.121, 9.5160998E-02
1161.603, 0.1944480
1162.085, 0.3047260
1162.567, 0.4319530
1163.049, 0.4760420
1163.531, 0.3049530
1164.014, 8.7590003E-03
1164.496, 0.1019590
1164.978, 1.6968001E-02
1165.460, 6.5470003E-02
1165.942, 5.7762001E-02
1166.424, 3.6518000E-02
1166.906, 6.2660002E-03
1167.388, 2.2886001E-02
1167.871, 5.6632999E-02
1168.353, 0.2148190
1168.835, 0.2738230
1169.317, 0.2416650
1169.799, 0.2442300
1170.281, 0.4280400
1170.763, 0.5759930
1171.245, 0.5365520
1171.728, 0.4444270
1172.210, 0.4842030
1172.692, 0.6454620
1173.174, 0.7115000
1173.656, 0.6704160
1174.138, 0.6405850
1174.620, 0.7951340
1175.102, 0.8837410
1175.584, 0.6362130
1176.067, 0.2757420
1176.549, 0.2505380
1177.031, 0.5641440
1177.513, 0.7471560
1177.995, 0.7420440
1178.477, 0.6463200
1178.959, 0.4293670
1179.441, 0.2488060
1179.923, 0.2186810
1180.406, 0.3148480
1180.888, 0.5002630
1181.370, 0.7822670
1181.852, 0.9225350
1182.334, 0.8625300
1182.816, 0.7624890
1183.298, 0.7421470
1183.780, 0.7584820
1184.263, 0.8145540
1184.745, 0.8842120
1185.227, 0.7945140
1185.709, 0.5175900
1186.191, 0.3717610
1186.673, 0.4576110
1187.155, 0.5970820
1187.637, 0.6315900
1188.120, 0.6271820
1188.602, 0.6509440
1189.084, 0.7044070
1189.566, 0.7229630
1190.048, 0.7001550
1190.530, 0.7120570
1191.012, 0.7980960
1191.494, 0.8856030
1191.976, 0.9199300
1192.458, 0.8972110
1192.941, 0.7759900
1193.423, 0.5428300
1193.905, 0.4585530
1194.387, 0.5233230
1194.869, 0.6279950
1195.351, 0.7533280
1195.833, 0.8622280
1196.315, 0.9557990
1196.798, 1.007822
1197.280, 0.9674320
1197.762, 0.8172260
1198.244, 0.6446610
1198.726, 0.4509120
1199.208, 0.3350410
1199.690, 0.3851150
1200.172, 0.4900420
1200.655, 0.5274120
1201.137, 0.5178470
1201.619, 0.5096340
1202.101, 0.5252970
1202.583, 0.6265640
1203.065, 0.8252450
1203.547, 0.9612560
1204.029, 0.9070450
1204.511, 0.7869890
1204.994, 0.7173190
1205.476, 0.6926350
1205.958, 0.7171040
1206.440, 0.8314090
1206.922, 0.8341790
1207.404, 0.7064820
1207.886, 0.5931090
1208.368, 0.6087190
1208.850, 0.6642210
1209.333, 0.6656280
1209.815, 0.6408600
1210.297, 0.6470870
1210.779, 0.7497710
1211.261, 0.6601070
1211.743, 0.3320240
1212.225, 5.6745999E-02
1212.707, 0.1089760
1213.190, 0.2876340
1213.672, 0.4164680
1214.154, 0.5090560
1214.636, 0.6033360
1215.118, 0.7320690
1215.600, 0.7947730
1216.082, 0.7812250
1216.564, 0.7430000
1217.047, 0.7379490
1217.529, 0.7216870
1218.011, 0.5737670
1218.493, 0.3970390
1218.975, 0.4643460
1219.457, 0.9275550
1219.939, 1.053093
1220.421, 0.7729280
1220.903, 0.4408170
1221.385, 0.2702220
1221.868, 0.2318400
1222.350, 0.4284590
1222.832, 0.7362710
1223.314, 0.8148120
1223.796, 0.5781670
1224.278, 0.4970020
1224.760, 0.6153090
1225.242, 0.6983150
1225.725, 0.4656260
1226.207, 0.2154660
1226.689, 0.2258530
1227.171, 0.4044970
1227.653, 0.4989170
1228.135, 0.5029050
1228.617, 0.4653070
1229.099, 0.3873900
1229.582, 0.3400670
1230.064, 0.4535270
1230.546, 0.5568520
1231.028, 0.4598480
1231.510, 0.2729930
1231.992, 0.2648120
1232.474, 0.4709490
1232.956, 0.6178420
1233.438, 0.6754490
1233.921, 0.6722090
1234.403, 0.5914940
1234.885, 0.5055270
1235.367, 0.4501510
1235.849, 0.4352300
1236.331, 0.4960480
1236.813, 0.6288340
1237.295, 0.7249010
1237.777, 0.7739750
1238.260, 0.7368530
1238.742, 0.4062390
1239.224, 0.1744330
1239.706, 0.4117620
1240.188, 0.8240590
1240.670, 0.9182070
1241.152, 0.7233200
1241.634, 0.4466040
1242.117, 0.1118980
1242.599, 2.1190999E-02
1243.081, 0.4233170
1243.563, 0.8550110
1244.045, 1.042934
1244.527, 1.055058
1245.009, 0.9756300
1245.491, 0.8188930
1245.974, 0.6293660
1246.456, 0.4205110
1246.938, 0.3208620
1247.420, 0.5164050
1247.902, 0.6823830
1248.384, 0.7101550
1248.866, 0.6660580
1249.348, 0.6567800
1249.830, 0.6556930
1250.313, 0.5956020
1250.795, 0.4827230
1251.277, 0.4192750
1251.759, 0.5026340
1252.241, 0.5697780
1252.723, 0.5783940
1253.205, 0.5639970
1253.687, 0.5646340
1254.169, 0.5906280
1254.652, 0.6943230
1255.134, 0.8763080
1255.616, 1.005138
1256.098, 1.097683
1256.580, 1.014036
1257.062, 0.6762850
1257.544, 0.2769570
1258.026, 3.1989999E-02
1258.509, 0.1992440
1258.991, 3.5195999E-02
1259.473, 0.4109610
1259.955, 0.6432970
1260.437, 0.5052010
1260.919, 0.4176520
1261.401, 0.4545940
1261.883, 0.5242290
1262.365, 0.5628990
1262.848, 0.5515820
1263.330, 0.3772770
1263.812, 0.1118890
1264.294, 0.1742320
1264.776, 0.7162670
1265.258, 0.9255830
1265.740, 0.6662140
1266.222, 0.3443130
1266.704, 0.3585780
1267.187, 0.4891760
1267.669, 0.5828720
1268.151, 0.6229000
1268.633, 0.5867580
1269.115, 0.4655760
1269.597, 0.3886430
1270.079, 0.3722420
1270.561, 0.3784850
1271.044, 0.3576180
1271.526, 0.3685340
1272.008, 0.5245290
1272.490, 0.7054920
1272.972, 0.6004960
1273.454, 0.3371280
1273.936, 0.1879370
1274.418, 0.1709980
1274.901, 0.1744650
1275.383, 0.1177600
1275.865, 8.0673002E-02
1276.347, 0.1125450
1276.829, 0.1724890
1277.311, 0.1998390
1277.793, 0.2083030
1278.275, 0.2828940
1278.757, 0.4145030
1279.240, 0.4619520
1279.722, 0.1853490
1280.204, 9.3907997E-02
1280.686, 0.3714200
1281.168, 0.7010360
1281.650, 0.6539650
1282.132, 0.4006790
1282.614, 0.2848340
1283.096, 0.3015290
1283.579, 0.3041900
1284.061, 0.2477420
1284.543, 0.1703890
1285.025, 4.8393000E-02
1285.507, 8.2230000E-03
1285.989, 0.1998630
1286.471, 0.2271420
1286.953, 0.0000000E+00
##END=



