##NAMES=Holfertite
##RRUFFID=R060595
##IDEAL CHEMISTRY=(U^6+^O_2_)_1.75_Ca_0.25_Ti^4+^O_4_&#183;3H_2_O
##LOCALITY=Searle Canyon, Thomas Range, Juab County, Utah, USA
##OWNER=RRUFF
##SOURCE=Michael Scott
##DESCRIPTION=Yellow bladed crystals embedded in topaz
##STATUS=The identification of this mineral has been confirmed by single-crystal X-ray diffraction.
##URL=rruff.info/R060595
90.74744, 0.0000000E+00
91.22955, 7.588623
91.71167, 24.02124
92.19379, 34.94751
92.67590, 41.55688
93.15802, 45.56250
93.64014, 47.69580
94.12225, 48.59375
94.60437, 48.65015
95.08649, 46.66504
95.56860, 42.31201
96.05072, 36.39966
96.53284, 30.73779
97.01495, 26.08887
97.49707, 26.34424
97.97919, 27.84937
98.46130, 25.63721
98.94342, 20.99121
99.42554, 15.78247
99.90765, 13.45508
100.3898, 14.83057
100.8719, 17.27734
101.3540, 16.91479
101.8361, 13.27856
102.3182, 8.965088
102.8004, 4.785400
103.2825, 0.5859380
103.7646, 2.446777
104.2467, 4.240479
104.7288, 4.822998
105.2109, 4.325684
105.6931, 2.707275
106.1752, 0.1311040
106.6573, 4.503662
107.1394, 12.07153
107.6215, 18.57446
108.1036, 23.84595
108.5858, 28.10815
109.0679, 32.05298
109.5500, 35.09912
110.0321, 38.42017
110.5142, 42.59912
110.9963, 49.11450
111.4785, 54.93994
111.9606, 59.55151
112.4427, 63.02051
112.9248, 66.46021
113.4069, 69.76416
113.8890, 73.22998
114.3712, 77.22778
114.8533, 83.04053
115.3354, 88.21802
115.8175, 92.05396
116.2996, 94.60449
116.7817, 95.98218
117.2639, 94.43286
117.7460, 92.23413
118.2281, 92.27441
118.7102, 98.97632
119.1923, 105.8613
119.6744, 108.3787
120.1566, 105.1951
120.6387, 101.5688
121.1208, 99.62549
121.6029, 99.47266
122.0850, 101.4062
122.5671, 107.6836
123.0493, 115.0859
123.5314, 120.2927
124.0135, 122.4568
124.4956, 122.9382
124.9777, 121.9731
125.4598, 119.9753
125.9420, 118.6384
126.4241, 119.6069
126.9062, 121.8589
127.3883, 123.5276
127.8704, 124.0190
128.3525, 123.9919
128.8347, 124.7063
129.3168, 126.1006
129.7989, 126.9551
130.2810, 125.3459
130.7631, 122.0874
131.2452, 120.8403
131.7274, 123.7195
132.2095, 128.6953
132.6916, 129.7185
133.1737, 126.3848
133.6558, 122.1611
134.1379, 120.9849
134.6201, 122.9617
135.1022, 124.8447
135.5843, 124.0461
136.0664, 119.8562
136.5485, 117.2446
137.0306, 117.6833
137.5128, 119.8994
137.9949, 121.7087
138.4770, 122.6501
138.9591, 123.6746
139.4412, 125.0813
139.9233, 126.9685
140.4055, 128.5935
140.8876, 129.9373
141.3697, 130.9338
141.8518, 131.7612
142.3339, 132.6748
142.8160, 132.7864
143.2982, 131.4453
143.7803, 127.9482
144.2624, 125.3040
144.7445, 123.6792
145.2266, 122.8118
145.7087, 122.0718
146.1909, 121.9995
146.6730, 121.5403
147.1551, 120.1699
147.6372, 116.8726
148.1193, 114.5090
148.6014, 113.7795
149.0836, 114.1011
149.5657, 113.6580
150.0478, 111.8838
150.5299, 109.7439
151.0120, 107.6580
151.4941, 104.5503
151.9763, 102.7048
152.4584, 103.4651
152.9405, 106.0366
153.4226, 106.4797
153.9047, 102.5740
154.3868, 97.68896
154.8690, 93.65625
155.3511, 92.21094
155.8332, 89.89185
156.3153, 85.44116
156.7974, 79.24146
157.2795, 74.14575
157.7617, 71.90479
158.2438, 70.44312
158.7259, 68.26587
159.2080, 64.23853
159.6901, 60.28149
160.1722, 56.86987
160.6544, 54.03589
161.1365, 51.78442
161.6186, 50.21021
162.1007, 49.00513
162.5828, 47.94043
163.0649, 47.57227
163.5471, 46.91284
164.0292, 45.24023
164.5113, 42.34326
164.9934, 39.60010
165.4755, 38.16821
165.9576, 37.15991
166.4398, 35.46289
166.9219, 31.72485
167.4040, 27.78296
167.8861, 24.81982
168.3682, 22.91846
168.8503, 21.52100
169.3325, 20.76538
169.8146, 20.25122
170.2967, 19.28857
170.7788, 17.30078
171.2609, 14.97559
171.7430, 12.83008
172.2252, 10.89282
172.7073, 9.330811
173.1894, 8.333008
173.6715, 7.815186
174.1536, 7.574463
174.6357, 7.995850
175.1179, 8.526123
175.6000, 8.456787
176.0821, 7.657227
176.5642, 6.501953
177.0463, 5.560303
177.5284, 4.611084
178.0106, 2.948975
178.4927, 0.7397460
178.9748, 5.159912
179.4569, 8.281738
179.9390, 9.960205
180.4211, 10.08447
180.9033, 7.347412
181.3854, 2.365234
181.8675, 1.707520
182.3496, 2.772461
182.8317, 1.635986
183.3138, 0.2263180
183.7960, 1.468018
184.2781, 2.897461
184.7602, 3.147949
185.2423, 2.312744
185.7244, 1.333252
186.2065, 0.8327640
186.6887, 0.6726070
187.1708, 0.1914060
187.6529, 0.7053220
188.1350, 1.808594
188.6171, 2.626953
189.0992, 3.196289
189.5814, 3.831787
190.0635, 4.106689
190.5456, 4.379639
191.0277, 7.311523
191.5098, 14.37573
191.9919, 22.48169
192.4741, 24.49023
192.9562, 20.17505
193.4383, 14.45142
193.9204, 9.883789
194.4025, 6.504883
194.8846, 5.200684
195.3668, 6.728271
195.8489, 9.640137
196.3310, 10.13770
196.8131, 7.899170
197.2952, 5.637451
197.7773, 5.438477
198.2595, 7.356201
198.7416, 8.940674
199.2237, 9.832520
199.7058, 10.24414
200.1879, 10.83618
200.6700, 11.82715
201.1522, 12.28589
201.6343, 11.08569
202.1164, 7.946045
202.5985, 6.403809
203.0806, 7.466553
203.5627, 10.06567
204.0449, 10.51440
204.5270, 8.301270
205.0091, 5.557617
205.4912, 3.599365
205.9733, 2.436035
206.4554, 1.972656
206.9376, 2.466309
207.4197, 3.561279
207.9018, 4.077881
208.3839, 3.983154
208.8660, 3.448730
209.3481, 2.326904
209.8303, 0.3325200
210.3124, 0.6691890
210.7945, 6.1523002E-02
211.2766, 1.663330
211.7587, 2.373535
212.2408, 1.515625
212.7230, 0.8793950
213.2051, 1.821777
213.6872, 4.829590
214.1693, 7.697754
214.6514, 10.21045
215.1335, 12.31909
215.6157, 13.75684
216.0978, 14.68872
216.5799, 14.54883
217.0620, 12.59277
217.5441, 7.698975
218.0262, 4.162842
218.5084, 2.580811
218.9905, 2.698730
219.4726, 3.239746
219.9547, 4.719238
220.4368, 5.927734
220.9189, 5.755859
221.4011, 3.142334
221.8832, 2.368896
222.3653, 4.916260
222.8474, 9.655518
223.3295, 11.40234
223.8116, 8.526611
224.2938, 5.111328
224.7759, 3.821289
225.2580, 5.565430
225.7401, 6.883301
226.2222, 7.150635
226.7043, 6.683105
227.1865, 7.234131
227.6686, 9.674316
228.1507, 11.66895
228.6328, 11.62671
229.1149, 8.374512
229.5970, 5.721191
230.0792, 3.500732
230.5613, 2.065186
231.0434, 3.003174
231.5255, 7.732422
232.0076, 12.77539
232.4897, 16.23901
232.9719, 17.72534
233.4540, 18.58716
233.9361, 18.26855
234.4182, 17.65649
234.9003, 19.76074
235.3824, 26.32153
235.8646, 32.71851
236.3467, 36.35205
236.8288, 34.83154
237.3109, 35.58032
237.7930, 39.25464
238.2751, 45.12573
238.7573, 51.41919
239.2394, 59.95947
239.7215, 66.82300
240.2036, 69.52051
240.6857, 64.96704
241.1678, 62.79199
241.6500, 64.76343
242.1321, 68.79663
242.6142, 69.03564
243.0963, 62.59644
243.5784, 56.27441
244.0605, 53.25220
244.5427, 55.45630
245.0248, 56.20654
245.5069, 55.17944
245.9890, 52.94458
246.4711, 50.71289
246.9532, 48.70557
247.4354, 46.44580
247.9175, 43.48315
248.3996, 39.07666
248.8817, 36.69751
249.3638, 37.21655
249.8459, 39.33740
250.3281, 40.85010
250.8102, 42.20288
251.2923, 42.25024
251.7744, 40.14917
252.2565, 34.90674
252.7386, 31.83276
253.2208, 31.70605
253.7029, 33.20776
254.1850, 34.44971
254.6671, 35.61377
255.1492, 36.01587
255.6313, 34.97095
256.1135, 31.95532
256.5956, 30.73804
257.0777, 31.71484
257.5598, 33.93945
258.0419, 36.39990
258.5240, 39.55737
259.0062, 41.61768
259.4883, 41.93652
259.9704, 40.33057
260.4525, 38.23315
260.9346, 35.03125
261.4167, 32.11914
261.8989, 31.37524
262.3810, 33.70898
262.8631, 35.82715
263.3452, 37.02539
263.8273, 37.40747
264.3094, 37.22705
264.7916, 36.31836
265.2737, 35.41138
265.7558, 35.17822
266.2379, 35.60010
266.7200, 36.94775
267.2021, 40.06299
267.6843, 44.43481
268.1664, 45.62622
268.6485, 42.98267
269.1306, 38.78467
269.6127, 34.50098
270.0948, 29.87061
270.5770, 25.84326
271.0591, 22.43970
271.5412, 19.73291
272.0233, 18.48071
272.5054, 18.99341
272.9875, 19.84424
273.4697, 20.08716
273.9518, 19.73926
274.4339, 18.66602
274.9160, 16.48022
275.3981, 13.76733
275.8802, 12.66431
276.3624, 13.55908
276.8445, 14.52808
277.3266, 14.14307
277.8087, 12.29102
278.2908, 11.11694
278.7729, 10.86768
279.2551, 11.33130
279.7372, 12.58130
280.2193, 15.04980
280.7014, 15.87939
281.1835, 12.36621
281.6656, 4.597412
282.1478, 0.5598140
282.6299, 2.664551
283.1120, 2.370605
283.5941, 9.2528999E-02
284.0762, 4.302246
284.5583, 8.380859
285.0405, 11.05908
285.5226, 12.45142
286.0047, 13.60303
286.4868, 14.58423
286.9689, 15.04712
287.4510, 14.50562
287.9332, 12.96777
288.4153, 10.76855
288.8974, 7.526367
289.3795, 3.704834
289.8616, 1.303223
290.3438, 0.4658200
290.8259, 0.1259770
291.3080, 2.326416
291.7901, 5.799072
292.2722, 8.331299
292.7543, 8.763916
293.2365, 8.014160
293.7186, 8.507080
294.2007, 10.29468
294.6828, 11.78833
295.1649, 10.89111
295.6470, 8.441406
296.1292, 7.179199
296.6113, 8.460205
297.0934, 10.62866
297.5755, 10.63086
298.0576, 8.649902
298.5397, 6.939209
299.0219, 7.920166
299.5040, 10.23218
299.9861, 10.83740
300.4682, 8.671631
300.9503, 5.526367
301.4324, 3.135010
301.9146, 1.474365
302.3967, 0.2827150
302.8788, 0.3532710
303.3609, 0.6796880
303.8430, 0.6044920
304.3251, 0.2612300
304.8073, 0.1240230
305.2894, 3.409668
305.7715, 9.272705
306.2536, 15.11572
306.7357, 19.05273
307.2178, 22.55273
307.7000, 27.51245
308.1821, 34.27637
308.6642, 39.97583
309.1463, 40.96851
309.6284, 39.66895
310.1105, 39.93701
310.5927, 45.04932
311.0748, 51.02173
311.5569, 54.77148
312.0390, 56.25708
312.5211, 58.28369
313.0032, 64.18066
313.4854, 70.94409
313.9675, 75.25146
314.4496, 72.95703
314.9317, 70.79077
315.4138, 72.55005
315.8959, 77.66309
316.3781, 82.57031
316.8602, 86.00415
317.3423, 88.46338
317.8244, 90.29907
318.3065, 91.78540
318.7886, 92.40723
319.2708, 89.90869
319.7529, 86.08105
320.2350, 85.99951
320.7171, 95.99683
321.1992, 106.3713
321.6813, 111.8398
322.1635, 108.9949
322.6456, 107.3413
323.1277, 110.2317
323.6098, 115.1326
324.0919, 117.8613
324.5740, 115.1946
325.0562, 112.4790
325.5383, 111.3845
326.0204, 112.3633
326.5025, 113.4673
326.9846, 113.8555
327.4667, 114.6499
327.9489, 117.1230
328.4310, 124.4924
328.9131, 130.0874
329.3952, 132.8918
329.8773, 132.9043
330.3594, 131.6572
330.8416, 127.9395
331.3237, 123.9968
331.8058, 121.3542
332.2879, 120.1045
332.7700, 120.0002
333.2521, 121.1748
333.7343, 123.4849
334.2164, 126.6924
334.6985, 132.1973
335.1806, 136.2136
335.6627, 135.8677
336.1448, 128.3921
336.6270, 125.2458
337.1091, 128.4209
337.5912, 134.7544
338.0733, 137.5798
338.5554, 135.7498
339.0375, 134.0002
339.5197, 134.4946
340.0018, 137.2395
340.4839, 138.9377
340.9660, 139.4126
341.4481, 139.5872
341.9302, 140.5093
342.4124, 142.1868
342.8945, 143.1306
343.3766, 142.3430
343.8587, 140.4724
344.3408, 140.9956
344.8229, 144.1360
345.3051, 147.9517
345.7872, 150.8994
346.2693, 153.0034
346.7514, 154.4590
347.2335, 154.8062
347.7156, 155.1404
348.1978, 158.2952
348.6799, 164.0366
349.1620, 168.8638
349.6441, 168.7546
350.1262, 166.1602
350.6083, 167.4297
351.0905, 174.2510
351.5726, 182.0977
352.0547, 185.3706
352.5368, 185.2651
353.0189, 185.4998
353.5010, 187.1372
353.9832, 190.4849
354.4653, 196.4675
354.9474, 205.2361
355.4295, 214.1277
355.9116, 220.8733
356.3937, 226.5305
356.8759, 232.4019
357.3580, 239.3945
357.8401, 246.5269
358.3222, 253.4961
358.8043, 260.3696
359.2864, 266.5349
359.7686, 268.9221
360.2507, 271.8794
360.7328, 279.4006
361.2149, 295.2346
361.6970, 310.9543
362.1791, 323.1672
362.6613, 332.7417
363.1434, 341.6929
363.6255, 349.4644
364.1076, 357.6108
364.5897, 367.2021
365.0718, 378.6914
365.5540, 389.4595
366.0361, 398.2983
366.5182, 406.4126
367.0003, 415.2607
367.4824, 426.0088
367.9645, 436.5610
368.4467, 446.3672
368.9288, 455.1938
369.4109, 464.9131
369.8930, 474.9609
370.3751, 486.4829
370.8572, 500.6753
371.3394, 520.9927
371.8215, 537.7822
372.3036, 548.4810
372.7857, 555.2061
373.2678, 565.9536
373.7499, 582.7358
374.2321, 600.1284
374.7142, 615.1733
375.1963, 627.0630
375.6784, 640.2583
376.1605, 654.6665
376.6426, 670.3003
377.1248, 687.1304
377.6069, 705.9688
378.0890, 723.5864
378.5711, 737.9927
379.0532, 749.8071
379.5353, 763.2314
380.0175, 778.6577
380.4996, 794.1201
380.9817, 807.7651
381.4638, 819.7671
381.9459, 831.7334
382.4280, 843.4937
382.9102, 855.2812
383.3923, 868.0767
383.8744, 881.8784
384.3565, 894.3755
384.8386, 903.3862
385.3207, 909.9624
385.8029, 916.1289
386.2850, 922.4146
386.7671, 927.4482
387.2492, 929.6919
387.7313, 929.6079
388.2134, 928.2422
388.6956, 926.1655
389.1777, 923.2905
389.6598, 919.0483
390.1419, 913.2437
390.6240, 907.3530
391.1061, 903.1655
391.5883, 899.2881
392.0704, 894.0435
392.5525, 886.6646
393.0346, 878.1055
393.5167, 868.2236
393.9988, 857.6045
394.4810, 847.3374
394.9631, 837.0654
395.4452, 827.6753
395.9273, 820.3931
396.4094, 817.2056
396.8915, 810.1709
397.3737, 794.8618
397.8558, 775.8252
398.3379, 758.6543
398.8200, 744.8081
399.3021, 731.7471
399.7842, 719.4043
400.2664, 707.7202
400.7485, 694.9829
401.2306, 680.8633
401.7127, 665.9961
402.1948, 650.7021
402.6769, 634.5645
403.1591, 618.9507
403.6412, 604.6855
404.1233, 590.6548
404.6054, 573.2207
405.0875, 551.1846
405.5696, 529.7905
406.0518, 511.9028
406.5339, 497.7344
407.0160, 480.8301
407.4981, 460.7705
407.9802, 439.8145
408.4623, 420.4375
408.9445, 402.6206
409.4266, 386.0195
409.9087, 371.1333
410.3908, 357.0679
410.8729, 341.1240
411.3550, 323.3872
411.8372, 306.8594
412.3193, 294.6411
412.8014, 285.0352
413.2835, 273.7124
413.7656, 259.6772
414.2477, 245.2490
414.7299, 231.9922
415.2120, 220.1719
415.6941, 210.7690
416.1762, 206.8301
416.6583, 203.5601
417.1404, 195.8428
417.6226, 183.6621
418.1047, 171.9644
418.5868, 163.0034
419.0689, 156.0293
419.5510, 150.4541
420.0331, 148.5205
420.5153, 144.7217
420.9974, 134.9800
421.4795, 121.6880
421.9616, 111.1206
422.4437, 108.7725
422.9258, 106.2178
423.4080, 99.41943
423.8901, 86.48096
424.3722, 75.54004
424.8543, 67.93213
425.3364, 62.43066
425.8185, 57.98389
426.3007, 56.25537
426.7828, 53.15430
427.2649, 47.28760
427.7470, 39.30029
428.2291, 33.52197
428.7112, 30.78760
429.1934, 28.73926
429.6755, 26.16846
430.1576, 22.98975
430.6397, 19.23291
431.1218, 14.47217
431.6039, 9.728027
432.0861, 6.803223
432.5682, 5.800293
433.0503, 5.201172
433.5324, 5.077148
434.0145, 4.899414
434.4966, 2.270996
434.9788, 2.846191
435.4609, 8.044922
435.9430, 11.46094
436.4251, 13.33350
436.9072, 14.26709
437.3893, 14.09375
437.8715, 13.63330
438.3536, 14.38330
438.8357, 15.70117
439.3178, 15.80322
439.7999, 12.53516
440.2820, 8.460449
440.7642, 6.234375
441.2463, 6.005371
441.7284, 5.790039
442.2105, 4.289063
442.6926, 2.434082
443.1747, 1.119629
443.6569, 1.098145
444.1390, 1.136719
444.6211, 0.4746090
445.1032, 0.4594730
445.5853, 0.2802730
446.0674, 3.430664
446.5496, 6.265625
447.0317, 5.932617
447.5138, 0.5429690
447.9959, 2.316406
448.4780, 1.217773
448.9601, 1.145020
449.4423, 1.989746
449.9244, 8.7890998E-02
450.4065, 0.8647460
450.8886, 0.4213870
451.3707, 3.024414
451.8528, 2.552246
452.3350, 1.849609
452.8171, 6.716309
453.2992, 10.21338
453.7813, 12.28613
454.2634, 14.28857
454.7455, 16.01514
455.2277, 18.19531
455.7098, 22.13867
456.1919, 27.54102
456.6740, 33.36963
457.1561, 40.17529
457.6382, 46.20459
458.1204, 46.75391
458.6025, 42.65283
459.0846, 39.43604
459.5667, 42.13037
460.0488, 47.55273
460.5309, 51.62061
461.0131, 53.62549
461.4952, 54.96436
461.9773, 55.51416
462.4594, 56.18213
462.9415, 58.36426
463.4236, 65.20654
463.9058, 71.15186
464.3879, 73.15479
464.8700, 71.51855
465.3521, 70.48633
465.8342, 71.93896
466.3163, 73.62988
466.7985, 74.21387
467.2806, 72.23535
467.7627, 71.64844
468.2448, 73.12744
468.7269, 75.68896
469.2090, 78.19385
469.6912, 81.40283
470.1733, 83.23145
470.6554, 82.48389
471.1375, 79.58643
471.6196, 79.48193
472.1017, 83.17969
472.5839, 86.72705
473.0660, 87.58594
473.5481, 85.73682
474.0302, 82.53809
474.5123, 77.54541
474.9944, 72.90186
475.4766, 72.97363
475.9587, 76.92480
476.4408, 79.16162
476.9229, 76.13672
477.4050, 70.94043
477.8871, 68.83008
478.3693, 69.58984
478.8514, 70.84229
479.3335, 69.28027
479.8156, 67.29443
480.2977, 69.01318
480.7798, 76.54932
481.2620, 83.29590
481.7441, 84.73926
482.2262, 82.98340
482.7083, 81.18896
483.1904, 78.02734
483.6725, 76.91016
484.1547, 80.65479
484.6368, 88.75586
485.1189, 94.62256
485.6010, 95.80078
486.0831, 95.23096
486.5652, 94.29443
487.0474, 91.94678
487.5295, 91.82959
488.0116, 95.41992
488.4937, 100.0000
488.9758, 101.8052
489.4579, 100.2505
489.9401, 97.69727
490.4222, 94.56445
490.9043, 90.93945
491.3864, 86.69824
491.8685, 81.55713
492.3506, 77.75098
492.8328, 77.74707
493.3149, 80.35693
493.7970, 80.91309
494.2791, 79.07227
494.7612, 75.97705
495.2433, 72.72266
495.7255, 69.40234
496.2076, 66.01172
496.6897, 62.48584
497.1718, 58.95898
497.6539, 55.92334
498.1360, 53.35742
498.6182, 50.71973
499.1003, 46.44824
499.5824, 42.30615
500.0645, 39.80225
500.5466, 39.59814
501.0287, 39.18164
501.5109, 36.93018
501.9930, 34.27881
502.4751, 32.70410
502.9572, 32.35547
503.4393, 33.10254
503.9214, 36.09180
504.4036, 40.00830
504.8857, 40.19141
505.3678, 34.65479
505.8499, 29.69385
506.3320, 28.35840
506.8141, 30.93701
507.2963, 30.20508
507.7784, 25.23926
508.2605, 20.27295
508.7426, 20.27979
509.2247, 24.85107
509.7068, 28.62402
510.1890, 30.59570
510.6711, 31.28174
511.1532, 30.92969
511.6353, 29.99023
512.1174, 30.41064
512.5995, 35.09180
513.0817, 40.54688
513.5638, 42.52344
514.0459, 41.03564
514.5280, 38.32227
515.0101, 34.57275
515.4922, 30.85645
515.9744, 28.30273
516.4565, 27.92236
516.9386, 27.35791
517.4207, 25.53223
517.9028, 23.20654
518.3849, 21.57080
518.8671, 20.56152
519.3492, 20.48389
519.8313, 22.20850
520.3134, 25.41943
520.7955, 26.17334
521.2776, 22.71680
521.7598, 19.26855
522.2419, 18.10010
522.7240, 19.44434
523.2061, 22.17578
523.6882, 27.11816
524.1703, 31.81885
524.6525, 32.24707
525.1346, 28.69434
525.6167, 26.17627
526.0988, 27.17334
526.5809, 28.72119
527.0630, 24.02588
527.5452, 14.27344
528.0273, 5.868164
528.5094, 2.808105
528.9915, 3.065918
529.4736, 4.943359
529.9557, 8.397461
530.4379, 11.39014
530.9200, 12.88623
531.4021, 13.24805
531.8842, 12.74072
532.3663, 10.31641
532.8484, 8.511230
533.3306, 8.485840
533.8127, 9.374023
534.2948, 9.294434
534.7769, 8.158691
535.2590, 5.976074
535.7411, 1.845703
536.2233, 4.062500
536.7054, 5.987305
537.1875, 1.893066
537.6696, 2.413086
538.1517, 2.885254
538.6339, 0.8037110
539.1160, 3.366699
539.5981, 4.569336
540.0802, 4.565430
540.5623, 2.432617
541.0444, 1.229004
541.5266, 3.023926
542.0087, 0.7817380
542.4908, 2.616211
542.9729, 2.781738
543.4550, 0.4804690
543.9371, 1.461914
544.4193, 0.7387700
544.9014, 0.3505860
545.3835, 0.2470700
545.8656, 1.284180
546.3477, 3.298340
546.8298, 6.180664
547.3120, 9.062012
547.7941, 11.08838
548.2762, 11.17529
548.7583, 11.66602
549.2404, 13.28027
549.7225, 15.27002
550.2047, 16.33398
550.6868, 16.15576
551.1689, 15.91699
551.6510, 16.28076
552.1331, 16.97412
552.6152, 14.64600
553.0974, 8.662109
553.5795, 3.217773
554.0616, 2.008301
554.5437, 4.201660
555.0258, 3.940918
555.5079, 0.5795900
555.9901, 2.084473
556.4722, 2.009277
556.9543, 9.626465
557.4364, 13.66455
557.9185, 10.26123
558.4006, 5.571777
558.8828, 4.148926
559.3649, 5.098145
559.8470, 6.489258
560.3291, 7.356445
560.8112, 8.424316
561.2933, 10.32275
561.7755, 13.00391
562.2576, 14.51416
562.7397, 12.28857
563.2218, 10.46924
563.7039, 11.48682
564.1860, 17.70068
564.6682, 20.73486
565.1503, 20.15283
565.6324, 17.16846
566.1145, 12.12305
566.5966, 4.508301
567.0787, 1.558594
567.5609, 6.678711
568.0430, 15.24561
568.5251, 16.17383
569.0072, 10.45020
569.4893, 5.073730
569.9714, 4.591797
570.4536, 6.498535
570.9357, 6.939941
571.4178, 5.930664
571.8999, 5.717285
572.3820, 8.336914
572.8641, 11.94434
573.3463, 15.03125
573.8284, 17.82031
574.3105, 18.73389
574.7926, 15.29346
575.2747, 10.35547
575.7568, 7.525879
576.2390, 8.448730
576.7211, 9.640137
577.2032, 10.66211
577.6853, 11.69482
578.1674, 13.32617
578.6495, 15.79395
579.1317, 18.29541
579.6138, 21.30469
580.0959, 24.39941
580.5780, 22.39697
581.0601, 14.79883
581.5422, 8.324219
582.0244, 10.59473
582.5065, 18.22217
582.9886, 22.60352
583.4707, 22.54004
583.9528, 20.46924
584.4349, 15.42969
584.9171, 10.57568
585.3992, 10.70068
585.8813, 25.06689
586.3634, 36.48926
586.8455, 35.28711
587.3276, 25.43506
587.8098, 17.61377
588.2919, 13.20703
588.7740, 11.74219
589.2561, 14.08691
589.7382, 20.31641
590.2203, 23.86914
590.7025, 23.83008
591.1846, 22.57617
591.6667, 21.50635
592.1488, 20.66699
592.6309, 19.67920
593.1130, 18.56689
593.5952, 17.42090
594.0773, 16.61377
594.5594, 15.97852
595.0415, 14.30566
595.5236, 10.44824
596.0057, 6.581543
596.4879, 5.263184
596.9700, 5.752930
597.4521, 6.521973
597.9342, 6.688965
598.4163, 7.350098
598.8984, 9.711914
599.3806, 13.47607
599.8627, 15.93555
600.3448, 16.43262
600.8269, 15.14111
601.3090, 11.38916
601.7911, 3.126465
602.2733, 0.2475590
602.7554, 3.830566
603.2375, 9.627441
603.7196, 10.93555
604.2017, 7.074219
604.6838, 5.665527
605.1660, 7.744629
605.6481, 11.90088
606.1302, 18.07227
606.6123, 25.25928
607.0944, 27.76904
607.5765, 19.19189
608.0587, 9.078125
608.5408, 10.36475
609.0229, 20.14697
609.5050, 28.24463
609.9871, 26.04639
610.4692, 22.91797
610.9514, 25.62988
611.4335, 35.07227
611.9156, 41.48584
612.3977, 41.09961
612.8798, 38.60205
613.3619, 36.51074
613.8441, 34.54150
614.3262, 33.73096
614.8083, 33.96143
615.2904, 34.49414
615.7725, 35.52148
616.2546, 37.79297
616.7368, 37.28174
617.2189, 31.69727
617.7010, 24.46582
618.1831, 23.10059
618.6652, 26.68457
619.1473, 30.14453
619.6295, 29.15625
620.1116, 27.63574
620.5937, 30.97998
621.0758, 38.12744
621.5579, 43.42578
622.0400, 42.21191
622.5222, 39.05273
623.0043, 36.54834
623.4864, 35.10059
623.9685, 34.76904
624.4506, 36.64844
624.9327, 37.93701
625.4149, 36.82080
625.8970, 31.50977
626.3791, 29.32471
626.8612, 31.75928
627.3433, 35.85303
627.8254, 36.82324
628.3076, 34.44385
628.7897, 32.78564
629.2718, 33.24609
629.7539, 34.61133
630.2360, 34.76465
630.7181, 34.15137
631.2003, 33.96094
631.6824, 35.63135
632.1645, 37.35645
632.6466, 37.72559
633.1287, 36.85938
633.6108, 35.36328
634.0930, 31.62598
634.5751, 29.00488
635.0572, 29.74951
635.5393, 34.93115
636.0214, 38.21924
636.5035, 38.95215
636.9857, 38.56250
637.4678, 37.99023
637.9499, 37.20654
638.4320, 35.92236
638.9141, 33.85889
639.3962, 31.65283
639.8784, 29.94141
640.3605, 28.88818
640.8426, 29.48096
641.3247, 33.02344
641.8068, 36.39209
642.2889, 35.49268
642.7711, 31.84863
643.2532, 29.12109
643.7353, 28.61670
644.2174, 29.73730
644.6995, 33.98730
645.1816, 40.44873
645.6638, 43.42578
646.1459, 38.93604
646.6280, 33.92529
647.1101, 30.69629
647.5922, 29.29688
648.0743, 27.53223
648.5565, 24.73877
649.0386, 23.00732
649.5207, 24.68408
650.0028, 29.16406
650.4849, 31.42676
650.9670, 30.76562
651.4492, 29.42334
651.9313, 29.48242
652.4134, 30.57324
652.8955, 32.15771
653.3776, 35.01123
653.8597, 36.54297
654.3419, 35.17822
654.8240, 31.67236
655.3061, 27.01270
655.7882, 20.42578
656.2703, 14.09326
656.7524, 8.159668
657.2346, 3.004883
657.7167, 0.3730470
658.1988, 1.727539
658.6809, 1.586914
659.1630, 0.5488280
659.6451, 3.895996
660.1273, 4.268066
660.6094, 1.904785
661.0915, 0.4614260
661.5736, 1.639648
662.0557, 1.637695
662.5378, 0.7070310
663.0200, 5.437012
663.5021, 8.924316
663.9842, 7.246094
664.4663, 3.768066
664.9484, 1.604492
665.4305, 1.649902
665.9127, 1.921387
666.3948, 1.840820
666.8769, 2.297852
667.3590, 4.226563
667.8411, 9.436035
668.3232, 12.32031
668.8054, 12.18311
669.2875, 9.842773
669.7696, 6.040527
670.2517, 0.7211910
670.7338, 4.039551
671.2159, 8.287598
671.6981, 10.93213
672.1802, 7.798828
672.6623, 0.9174800
673.1444, 2.828613
673.6265, 4.339844
674.1086, 12.69678
674.5908, 13.97070
675.0729, 9.238770
675.5550, 6.499023
676.0371, 10.37793
676.5192, 14.68750
677.0013, 16.37305
677.4835, 15.03467
677.9656, 14.85205
678.4477, 16.78174
678.9298, 17.95068
679.4119, 15.56982
679.8940, 9.522949
680.3762, 7.342773
680.8583, 9.869629
681.3404, 12.19434
681.8225, 7.022949
682.3046, 1.750488
682.7867, 6.165527
683.2689, 3.898438
683.7510, 0.9770510
684.2331, 8.673828
684.7152, 16.15527
685.1973, 19.57178
685.6794, 14.34424
686.1616, 9.077637
686.6437, 4.820801
687.1258, 1.462891
687.6079, 0.8090820
688.0900, 1.454590
688.5721, 2.122070
689.0543, 3.102539
689.5364, 4.240723
690.0185, 4.642578
690.5006, 4.320801
690.9827, 5.892578
691.4648, 13.81396
691.9470, 22.81055
692.4291, 24.00098
692.9112, 18.53711
693.3933, 12.72461
693.8754, 8.296875
694.3575, 6.157715
694.8397, 7.793457
695.3218, 13.72510
695.8039, 18.69531
696.2860, 23.51025
696.7681, 25.99414
697.2502, 24.31494
697.7324, 16.96045
698.2145, 13.37598
698.6966, 14.08545
699.1787, 17.21875
699.6608, 21.64648
700.1429, 27.00537
700.6251, 32.13867
701.1072, 36.95068
701.5893, 40.80811
702.0714, 40.94824
702.5535, 40.28223
703.0356, 43.61621
703.5178, 55.85742
703.9999, 65.67773
704.4820, 66.23975
704.9641, 62.30371
705.4462, 61.54053
705.9283, 66.89209
706.4105, 71.43115
706.8926, 74.28320
707.3747, 75.92236
707.8568, 76.95996
708.3389, 77.29150
708.8210, 79.61328
709.3032, 86.28955
709.7853, 94.26318
710.2674, 95.49854
710.7495, 91.85303
711.2316, 90.78076
711.7137, 99.05762
712.1959, 109.1514
712.6780, 115.8516
713.1601, 119.3433
713.6422, 121.8911
714.1243, 121.6313
714.6064, 122.9424
715.0886, 128.0469
715.5707, 137.2046
716.0528, 145.0068
716.5349, 151.6113
717.0170, 157.2656
717.4991, 162.6748
717.9813, 167.3813
718.4634, 168.2012
718.9455, 164.7837
719.4276, 162.8599
719.9097, 168.4961
720.3918, 178.3174
720.8740, 187.6396
721.3561, 195.7207
721.8382, 203.3188
722.3203, 210.3389
722.8024, 217.3257
723.2845, 224.8887
723.7667, 232.5127
724.2488, 242.0430
724.7309, 255.2549
725.2130, 268.6689
725.6951, 277.9341
726.1772, 282.6318
726.6594, 287.2861
727.1415, 292.4932
727.6236, 297.6118
728.1057, 300.9175
728.5878, 303.2695
729.0699, 307.2764
729.5521, 314.6470
730.0342, 323.1782
730.5163, 331.6289
730.9984, 340.0747
731.4805, 348.4756
731.9626, 358.0156
732.4448, 366.3887
732.9269, 372.4277
733.4090, 377.5098
733.8911, 385.1958
734.3732, 395.9126
734.8553, 407.1260
735.3375, 418.4395
735.8196, 429.5659
736.3017, 438.9712
736.7838, 447.1772
737.2659, 457.3081
737.7480, 474.1597
738.2302, 491.3672
738.7123, 502.8428
739.1944, 509.3105
739.6765, 515.1689
740.1586, 519.2441
740.6407, 525.2744
741.1229, 536.6875
741.6050, 553.1382
742.0871, 563.6929
742.5692, 565.7983
743.0513, 568.3164
743.5334, 577.6724
744.0156, 592.6411
744.4977, 601.3203
744.9798, 603.7188
745.4619, 605.5825
745.9440, 611.4126
746.4261, 619.1421
746.9083, 627.0000
747.3904, 634.8203
747.8725, 640.4766
748.3546, 640.6338
748.8367, 639.7119
749.3188, 640.8364
749.8010, 644.8887
750.2831, 647.9170
750.7652, 651.1572
751.2473, 651.2554
751.7294, 644.1768
752.2115, 630.0635
752.6937, 618.7651
753.1758, 611.1787
753.6579, 604.4448
754.1400, 596.1914
754.6221, 586.7637
755.1042, 576.6494
755.5864, 566.1377
756.0685, 554.8574
756.5506, 541.6230
757.0327, 528.1914
757.5148, 516.5859
757.9969, 509.5830
758.4791, 500.3125
758.9612, 488.0996
759.4433, 474.2856
759.9254, 459.3823
760.4075, 442.9893
760.8896, 432.0161
761.3718, 428.6069
761.8539, 427.0249
762.3360, 420.6172
762.8181, 410.2212
763.3002, 397.3530
763.7823, 380.7734
764.2645, 364.8066
764.7466, 352.2271
765.2287, 341.7422
765.7108, 331.1494
766.1929, 320.1719
766.6750, 309.2500
767.1572, 298.3760
767.6393, 287.7632
768.1214, 277.9448
768.6035, 269.0337
769.0856, 259.2891
769.5677, 247.7744
770.0499, 235.9385
770.5320, 225.2158
771.0141, 215.9023
771.4962, 208.8623
771.9783, 205.6719
772.4604, 203.4463
772.9426, 202.0068
773.4247, 200.3096
773.9068, 195.8613
774.3889, 187.5049
774.8710, 177.4258
775.3531, 164.7461
775.8353, 151.1953
776.3174, 141.8262
776.7995, 136.8564
777.2816, 134.0322
777.7637, 134.2285
778.2458, 134.4033
778.7280, 127.7773
779.2101, 116.5117
779.6922, 107.4561
780.1743, 105.8682
780.6564, 105.4189
781.1385, 102.5420
781.6207, 97.94434
782.1028, 94.95020
782.5849, 93.48633
783.0670, 94.03809
783.5491, 97.87988
784.0313, 103.4248
784.5134, 104.1660
784.9955, 99.99414
785.4776, 95.12305
785.9597, 91.72949
786.4418, 88.57910
786.9240, 82.71191
787.4061, 75.12109
787.8882, 69.59863
788.3703, 69.90820
788.8524, 71.02637
789.3345, 70.64844
789.8167, 68.92676
790.2988, 67.29785
790.7809, 65.81543
791.2630, 64.59375
791.7451, 63.36816
792.2272, 62.59863
792.7094, 65.53418
793.1915, 71.94727
793.6736, 76.59375
794.1557, 74.25293
794.6378, 69.75781
795.1199, 69.74902
795.6021, 73.23047
796.0842, 75.71875
796.5663, 74.25879
797.0484, 72.24707
797.5305, 70.21191
798.0126, 68.46582
798.4948, 70.17090
798.9769, 76.60254
799.4590, 83.35645
799.9411, 88.29785
800.4232, 92.22168
800.9053, 98.50684
801.3875, 106.8057
801.8696, 113.4258
802.3517, 113.5293
802.8338, 112.9160
803.3159, 118.0977
803.7980, 128.1660
804.2802, 137.0049
804.7623, 143.3164
805.2444, 146.9902
805.7265, 145.2559
806.2086, 139.5684
806.6907, 145.5557
807.1729, 166.6240
807.6550, 184.2686
808.1371, 188.2871
808.6192, 183.2197
809.1013, 179.6729
809.5834, 178.1387
810.0656, 179.9043
810.5477, 187.6240
811.0298, 198.1035
811.5119, 211.0723
811.9940, 225.7881
812.4761, 237.1270
812.9583, 242.1094
813.4404, 246.8066
813.9225, 253.2070
814.4046, 260.9746
814.8867, 267.2402
815.3688, 271.7051
815.8510, 279.5107
816.3331, 295.2344
816.8152, 314.7686
817.2973, 331.2803
817.7794, 345.4346
818.2615, 359.5029
818.7437, 374.0830
819.2258, 388.2803
819.7079, 402.5410
820.1900, 416.4141
820.6721, 426.4141
821.1542, 430.1729
821.6364, 435.6738
822.1185, 447.0938
822.6006, 461.2168
823.0827, 467.2891
823.5648, 466.3438
824.0469, 466.3047
824.5291, 471.8291
825.0112, 479.3584
825.4933, 488.3418
825.9754, 497.6152
826.4575, 502.8506
826.9396, 497.2041
827.4218, 491.5889
827.9039, 488.3857
828.3860, 487.7969
828.8681, 490.6533
829.3502, 498.0225
829.8323, 501.5117
830.3145, 497.4941
830.7966, 489.4111
831.2787, 483.3926
831.7608, 478.0361
832.2429, 469.9707
832.7250, 455.8252
833.2072, 441.4893
833.6893, 431.1631
834.1714, 422.6650
834.6535, 410.7432
835.1356, 393.2002
835.6177, 376.6699
836.0999, 362.6143
836.5820, 349.8770
837.0641, 334.8447
837.5462, 317.9307
838.0283, 304.1553
838.5104, 296.7588
838.9926, 290.0840
839.4747, 276.9473
839.9568, 260.2852
840.4389, 245.0781
840.9210, 234.1943
841.4031, 223.4570
841.8853, 210.6318
842.3674, 198.0420
842.8495, 189.7705
843.3316, 186.9941
843.8137, 182.2754
844.2958, 174.0400
844.7780, 163.7949
845.2601, 154.9248
845.7422, 146.7207
846.2243, 136.7188
846.7064, 123.0039
847.1885, 110.6133
847.6707, 103.7266
848.1528, 99.15625
848.6349, 93.26660
849.1170, 85.70312
849.5991, 77.03320
850.0812, 66.55762
850.5634, 56.46094
851.0455, 49.06738
851.5276, 44.30859
852.0097, 41.33496
852.4918, 40.25586
852.9739, 39.90918
853.4561, 39.70312
853.9382, 39.20020
854.4203, 37.83398
854.9024, 35.20117
855.3845, 32.62012
855.8666, 30.36523
856.3488, 27.98145
856.8309, 24.56543
857.3130, 19.41797
857.7951, 17.51953
858.2772, 18.79102
858.7593, 22.37695
859.2415, 31.21680
859.7236, 40.34375
860.2057, 39.61133
860.6878, 28.23926
861.1699, 18.75293
861.6520, 19.76074
862.1342, 22.47949
862.6163, 21.51367
863.0984, 16.81055
863.5805, 12.43164
864.0626, 8.138672
864.5447, 5.105469
865.0269, 6.201172
865.5090, 9.016602
865.9911, 1.853516
866.4732, 13.40039
866.9553, 24.16797
867.4374, 18.28418
867.9196, 8.851563
868.4017, 5.137695
868.8838, 6.652344
869.3659, 6.810547
869.8480, 4.674805
870.3301, 2.191406
870.8123, 8.1055000E-02
871.2944, 2.085938
871.7765, 4.139648
872.2586, 6.031250
872.7407, 7.106445
873.2228, 7.023438
873.7050, 5.927734
874.1871, 3.786133
874.6692, 0.8164060
875.1513, 2.576172
875.6334, 8.333984
876.1155, 11.44238
876.5977, 9.806641
877.0798, 5.791992
877.5619, 3.592773
878.0440, 3.221680
878.5261, 3.626953
879.0082, 4.873047
879.4904, 6.030273
879.9725, 4.997070
880.4546, 3.185547
880.9367, 3.397461
881.4188, 7.953125
881.9009, 11.38965
882.3831, 8.920898
882.8652, 6.256836
883.3473, 10.18555
883.8294, 24.50391
884.3115, 29.54102
884.7936, 22.90918
885.2758, 13.42480
885.7579, 10.19238
886.2400, 10.76270
886.7221, 9.396484
887.2042, 5.232422
887.6863, 1.987305
888.1685, 4.254883
888.6506, 6.303711
889.1327, 2.725586
889.6148, 8.041992
890.0969, 11.79688
890.5790, 5.463867
891.0612, 0.3720700
891.5433, 1.295898
892.0254, 8.275391
892.5075, 12.68555
892.9896, 14.76855
893.4717, 17.04883
893.9539, 21.99414
894.4360, 26.87891
894.9181, 30.15820
895.4002, 31.90234
895.8823, 32.56152
896.3644, 32.69531
896.8466, 31.26074
897.3287, 27.40820
897.8108, 22.61426
898.2929, 20.76172
898.7750, 21.64648
899.2571, 23.59570
899.7393, 28.41797
900.2214, 31.32227
900.7035, 23.60645
901.1856, 11.44629
901.6677, 5.530273
902.1498, 14.92578
902.6320, 21.17676
903.1141, 22.45215
903.5962, 21.29199
904.0783, 19.91211
904.5604, 18.95605
905.0425, 19.80176
905.5247, 22.92969
906.0068, 26.16602
906.4889, 27.64551
906.9710, 28.10938
907.4531, 28.26758
907.9352, 28.25488
908.4174, 28.52637
908.8995, 30.43262
909.3816, 31.35449
909.8637, 28.85449
910.3458, 22.95605
910.8279, 20.75488
911.3101, 22.27051
911.7922, 24.76074
912.2743, 26.79785
912.7564, 28.25195
913.2385, 28.82520
913.7206, 28.54980
914.2028, 27.98438
914.6849, 25.23340
915.1670, 24.79980
915.6491, 29.49805
916.1312, 37.30078
916.6133, 39.55273
917.0955, 36.25391
917.5776, 33.38867
918.0597, 33.57715
918.5418, 34.85840
919.0239, 35.43359
919.5060, 35.19922
919.9882, 33.86719
920.4703, 27.11230
920.9524, 24.92773
921.4345, 32.21484
921.9166, 41.74512
922.3987, 43.35742
922.8809, 36.17480
923.3630, 34.03223
923.8451, 39.00000
924.3272, 45.02441
924.8093, 47.23828
925.2914, 47.09277
925.7736, 44.39648
926.2557, 37.99805
926.7378, 34.59082
927.2199, 39.79199
927.7020, 45.60547
928.1841, 48.43848
928.6663, 48.30957
929.1484, 45.38770
929.6305, 39.56152
930.1126, 33.81934
930.5947, 29.57910
931.0768, 26.75684
931.5590, 24.11719
932.0411, 22.50586
932.5232, 25.34570
933.0053, 42.64551
933.4874, 53.05176
933.9695, 49.18164
934.4517, 36.74316
934.9338, 28.56934
935.4159, 24.68750
935.8980, 23.25195
936.3801, 24.50684
936.8622, 26.19727
937.3444, 25.09668
937.8265, 23.02930
938.3086, 22.75684
938.7907, 26.74512
939.2728, 28.36035
939.7549, 25.42969
940.2371, 21.21680
940.7192, 17.25293
941.2013, 13.00195
941.6834, 11.92480
942.1655, 14.76465
942.6476, 18.95117
943.1298, 20.71484
943.6119, 22.79688
944.0940, 30.00879
944.5761, 42.42969
945.0582, 50.83496
945.5403, 52.05176
946.0225, 49.40234
946.5046, 42.80957
946.9867, 33.86328
947.4688, 27.06348
947.9509, 22.17188
948.4330, 20.83301
948.9152, 25.91016
949.3973, 32.10742
949.8794, 34.78711
950.3615, 34.54785
950.8436, 32.74316
951.3257, 25.84766
951.8079, 23.50781
952.2900, 29.20117
952.7721, 35.65625
953.2542, 32.49805
953.7363, 21.30957
954.2184, 14.10156
954.7006, 12.42383
955.1827, 12.67285
955.6648, 14.99707
956.1469, 15.88184
956.6290, 10.36523
957.1111, 3.286133
957.5933, 9.177734
958.0754, 3.398438
958.5575, 3.494141
959.0396, 7.067383
959.5217, 7.363281
960.0038, 2.291992
960.4860, 6.549805
960.9681, 9.939453
961.4502, 4.270508
961.9323, 17.95703
962.4144, 16.60547
962.8965, 7.595703
963.3787, 8.040039
963.8608, 24.23438
964.3429, 34.55078
964.8250, 35.83398
965.3071, 32.00488
965.7892, 24.43359
966.2714, 16.50684
966.7535, 18.72559
967.2356, 34.47363
967.7177, 47.78223
968.1998, 48.57031
968.6819, 44.44434
969.1641, 39.62012
969.6462, 33.91699
970.1283, 33.68359
970.6104, 40.07129
971.0925, 45.48633
971.5746, 43.92773
972.0568, 39.42383
972.5389, 39.81934
973.0210, 43.74121
973.5031, 46.63379
973.9852, 45.05469
974.4673, 43.91992
974.9495, 46.00293
975.4316, 48.70996
975.9137, 46.03418
976.3958, 37.43652
976.8779, 35.77832
977.3600, 44.70508
977.8422, 55.00293
978.3243, 57.46094
978.8064, 55.17969
979.2885, 51.19727
979.7706, 45.14062
980.2527, 41.87891
980.7349, 43.76172
981.2170, 46.24023
981.6991, 46.21094
982.1812, 44.33496
982.6633, 47.83789
983.1454, 55.95996
983.6276, 61.20215
984.1097, 54.29883
984.5918, 47.04199
985.0739, 50.27832
985.5560, 60.02637
986.0381, 65.54590
986.5203, 65.26465
987.0024, 61.77246
987.4845, 53.63477
987.9666, 45.99219
988.4487, 49.01660
988.9308, 58.60742
989.4130, 61.84766
989.8951, 55.84277
990.3772, 50.09961
990.8593, 52.60059
991.3414, 55.53027
991.8235, 52.11328
992.3057, 41.83203
992.7878, 36.89648
993.2699, 37.98340
993.7520, 39.87793
994.2341, 39.91504
994.7162, 38.88867
995.1984, 37.73535
995.6805, 36.55859
996.1626, 35.72559
996.6447, 35.20215
997.1268, 35.33105
997.6089, 35.90332
998.0911, 37.28125
998.5732, 40.37109
999.0553, 45.13672
999.5374, 49.34473
1000.020, 52.86426
1000.502, 53.99023
1000.984, 48.78906
1001.466, 41.76758
1001.948, 36.99023
1002.430, 34.99609
1002.912, 35.45312
1003.394, 40.17871
1003.876, 42.71191
1004.359, 39.41406
1004.841, 32.59961
1005.323, 28.60645
1005.805, 27.33398
1006.287, 28.36719
1006.769, 34.05273
1007.251, 38.89844
1007.733, 38.76758
1008.216, 36.70898
1008.698, 37.10059
1009.180, 41.04492
1009.662, 43.16211
1010.144, 42.92090
1010.626, 41.87402
1011.108, 41.16504
1011.590, 40.70215
1012.072, 39.45996
1012.555, 37.57324
1013.037, 38.87109
1013.519, 49.92090
1014.001, 58.03516
1014.483, 58.35938
1014.965, 52.72559
1015.447, 48.98047
1015.929, 47.75488
1016.411, 45.56836
1016.894, 41.11426
1017.376, 36.22461
1017.858, 30.59082
1018.340, 26.08301
1018.822, 24.98828
1019.304, 31.94434
1019.786, 34.32812
1020.268, 30.89258
1020.751, 26.43164
1021.233, 24.17188
1021.715, 23.63867
1022.197, 24.58301
1022.679, 26.56348
1023.161, 26.40039
1023.643, 17.91992
1024.125, 11.99609
1024.607, 14.26758
1025.090, 21.39355
1025.572, 27.50000
1026.054, 32.67383
1026.536, 34.13965
1027.018, 30.82812
1027.500, 26.12891
1027.982, 22.36719
1028.464, 19.92773
1028.947, 19.64453
1029.429, 22.18652
1029.911, 24.37012
1030.393, 26.67480
1030.875, 27.73242
1031.357, 27.13867
1031.839, 24.89453
1032.321, 17.76074
1032.803, 8.022461
1033.286, 4.831055
1033.768, 21.04004
1034.250, 35.39355
1034.732, 36.25391
1035.214, 30.72168
1035.696, 28.86621
1036.178, 31.04785
1036.660, 34.96387
1037.143, 40.87988
1037.625, 45.10156
1038.107, 42.25293
1038.589, 36.91113
1039.071, 34.55371
1039.553, 35.42480
1040.035, 37.37012
1040.517, 40.74609
1041.000, 43.87402
1041.482, 46.43262
1041.964, 48.34473
1042.446, 50.41211
1042.928, 51.80664
1043.410, 47.56055
1043.892, 33.20508
1044.374, 22.33496
1044.856, 28.11230
1045.339, 37.96387
1045.821, 39.94922
1046.303, 32.36328
1046.785, 29.42676
1047.267, 31.68457
1047.749, 33.89941
1048.231, 31.57910
1048.713, 27.85840
1049.195, 27.58594
1049.677, 29.24609
1050.160, 28.55078
1050.642, 17.10645
1051.124, 13.72949
1051.606, 23.37500
1052.088, 37.27051
1052.570, 44.84277
1053.052, 46.56641
1053.534, 42.28711
1054.017, 31.76465
1054.499, 22.45020
1054.981, 19.69434
1055.463, 19.00781
1055.945, 18.17578
1056.427, 17.08789
1056.909, 14.62305
1057.391, 10.51855
1057.874, 9.914063
1058.356, 17.01367
1058.838, 23.43652
1059.320, 14.98340
1059.802, 0.9082030
1060.284, 5.154297
1060.766, 5.358398
1061.248, 10.32324
1061.730, 6.135742
1062.213, 1.968750
1062.695, 5.947266
1063.177, 15.03320
1063.659, 17.89648
1064.141, 15.55566
1064.623, 13.14941
1065.105, 12.25684
1065.587, 12.69531
1066.070, 16.68848
1066.552, 20.56641
1067.034, 16.75195
1067.516, 4.693359
1067.998, 2.114258
1068.480, 11.92090
1068.962, 22.45703
1069.444, 23.29102
1069.927, 19.95410
1070.409, 17.54102
1070.891, 16.50488
1071.373, 13.68359
1071.855, 8.927734
1072.337, 2.516602
1072.819, 7.233398
1073.301, 15.19043
1073.783, 7.797852
1074.266, 7.432617
1074.748, 13.40039
1075.230, 0.1748050
1075.712, 8.825195
1076.194, 3.040039
1076.676, 4.433594
1077.158, 5.125977
1077.640, 0.1914060
1078.122, 3.544922
1078.604, 4.965820
1079.087, 4.520508
1079.569, 0.9804690
1080.051, 2.797852
1080.533, 4.046875
1081.015, 4.767578
1081.497, 9.347656
1081.979, 19.66309
1082.461, 23.54590
1082.944, 19.25684
1083.426, 14.09375
1083.908, 16.21875
1084.390, 20.70605
1084.872, 20.49902
1085.354, 15.93652
1085.836, 15.85254
1086.318, 24.86914
1086.801, 32.10059
1087.283, 34.84277
1087.765, 34.85254
1088.247, 36.04980
1088.729, 37.03906
1089.211, 32.74121
1089.693, 20.27246
1090.175, 12.04980
1090.657, 17.61621
1091.140, 24.62695
1091.622, 25.56836
1092.104, 21.66211
1092.586, 25.19141
1093.068, 35.20801
1093.550, 40.01855
1094.032, 31.38379
1094.514, 20.42969
1094.997, 13.70996
1095.479, 10.34082
1095.961, 9.304688
1096.443, 11.66797
1096.925, 11.64746
1097.407, 8.699219
1097.889, 6.838867
1098.371, 10.82227
1098.854, 16.55469
1099.336, 19.00098
1099.818, 18.55273
1100.300, 17.23828
1100.782, 14.27148
1101.264, 12.72949
1101.746, 13.62402
1102.228, 14.82129
1102.710, 12.47070
1103.193, 8.434570
1103.675, 7.191406
1104.157, 9.328125
1104.639, 13.31543
1105.121, 23.93262
1105.603, 29.82324
1106.085, 25.34375
1106.567, 14.11133
1107.049, 5.575195
1107.531, 8.7890001E-03
1108.014, 1.284180
1108.496, 12.62988
1108.978, 22.91211
1109.460, 21.60352
1109.942, 17.53223
1110.424, 19.14844
1110.906, 26.88965
1111.388, 29.01367
1111.871, 25.05469
1112.353, 21.94727
1112.835, 24.51562
1113.317, 28.02734
1113.799, 26.00098
1114.281, 29.20605
1114.763, 21.48535
1115.245, 30.25586
1115.728, 33.55371
1116.210, 30.31250
1116.692, 25.60742
1117.174, 22.42090
1117.656, 21.28906
1118.138, 24.59180
1118.620, 31.22168
1119.102, 35.53320
1119.584, 33.04297
1120.067, 31.19922
1120.549, 30.95215
1121.031, 31.62793
1121.513, 34.02344
1121.995, 36.47754
1122.477, 31.71973
1122.959, 19.21094
1123.441, 9.143555
1123.924, 8.629883
1124.406, 9.852539
1124.888, 8.989258
1125.370, 7.538086
1125.852, 11.31836
1126.334, 19.62695
1126.816, 22.57812
1127.298, 17.27734
1127.781, 10.22754
1128.263, 4.861328
1128.745, 1.052734
1129.227, 0.6562500
1129.709, 0.4433590
1130.191, 1.887695
1130.673, 5.375977
1131.155, 9.565430
1131.637, 14.19531
1132.120, 16.51660
1132.602, 11.82422
1133.084, 4.277344
1133.566, 0.6865230
1134.048, 3.090820
1134.530, 1.227539
1135.012, 6.175781
1135.494, 11.57324
1135.976, 6.953125
1136.458, 0.7597660
1136.941, 0.2548830
1137.423, 6.382813
1137.905, 13.48535
1138.387, 23.73340
1138.869, 26.73828
1139.351, 18.90527
1139.833, 10.39453
1140.315, 12.66113
1140.798, 21.40527
1141.280, 26.70703
1141.762, 28.53711
1142.244, 29.61523
1142.726, 32.00879
1143.208, 32.15918
1143.690, 28.12598
1144.172, 23.08496
1144.655, 22.77734
1145.137, 25.83984
1145.619, 26.51758
1146.101, 24.15234
1146.583, 21.54980
1147.065, 19.80078
1147.547, 18.98926
1148.029, 19.22754
1148.511, 20.43164
1148.994, 22.68652
1149.476, 25.81738
1149.958, 27.43652
1150.440, 26.43457
1150.922, 26.81543
1151.404, 34.26660
1151.886, 41.62402
1152.368, 42.33203
1152.851, 37.24121
1153.333, 35.50977
1153.815, 37.00488
1154.297, 40.56934
1154.779, 46.96680
1155.261, 52.19824
1155.743, 50.15820
1156.225, 46.07422
1156.708, 47.24219
1157.190, 55.51367
1157.672, 55.63086
1158.154, 46.62305
1158.636, 38.45410
1159.118, 37.71191
1159.600, 39.83594
1160.082, 41.20898
1160.564, 41.60742
1161.047, 40.34863
1161.529, 36.18262
1162.011, 33.81738
1162.493, 33.51465
1162.975, 34.49414
1163.457, 37.91504
1163.939, 41.03320
1164.421, 38.67188
1164.903, 32.58398
1165.385, 28.18750
1165.868, 26.36523
1166.350, 27.44434
1166.832, 32.72266
1167.314, 36.75879
1167.796, 30.80859
1168.278, 21.05078
1168.760, 18.97949
1169.242, 24.22559
1169.725, 29.93652
1170.207, 37.80371
1170.689, 39.88477
1171.171, 32.95605
1171.653, 24.34473
1172.135, 24.64941
1172.617, 30.75195
1173.099, 37.48242
1173.582, 44.08887
1174.064, 47.66992
1174.546, 43.37207
1175.028, 40.80566
1175.510, 43.26465
1175.992, 47.57422
1176.474, 46.03711
1176.956, 41.07324
1177.438, 40.65234
1177.921, 47.01367
1178.403, 51.02539
1178.885, 45.41211
1179.367, 40.79102
1179.849, 42.28418
1180.331, 47.24805
1180.813, 46.89551
1181.295, 42.70508
1181.778, 40.15723
1182.260, 40.96387
1182.742, 42.80078
1183.224, 44.89355
1183.706, 47.54590
1184.188, 51.05176
1184.670, 55.20215
1185.152, 59.78418
1185.635, 64.11035
1186.117, 64.73828
1186.599, 57.75977
1187.081, 52.04883
1187.563, 56.17871
1188.045, 59.49902
1188.527, 51.35156
1189.009, 33.54004
1189.491, 31.96094
1189.974, 44.76660
1190.456, 58.05176
1190.938, 68.27441
1191.420, 72.64062
1191.902, 63.89551
1192.384, 52.60449
1192.866, 50.46680
1193.348, 43.89160
1193.830, 36.92090
1194.313, 39.54492
1194.795, 28.67773
1195.277, 31.78809
1195.759, 37.56934
1196.241, 40.80371
1196.723, 42.70117
1197.205, 45.67188
1197.687, 44.26465
1198.169, 47.71875
1198.652, 38.95703
1199.134, 30.10938
1199.616, 23.52148
1200.098, 20.48730
1200.580, 26.62695
1201.062, 34.76855
1201.544, 31.09180
1202.026, 15.08008
1202.509, 8.759766
1202.991, 14.10254
1203.473, 22.44629
1203.955, 30.00586
1204.437, 35.90723
1204.919, 38.57031
1205.401, 39.28711
1205.883, 41.47656
1206.365, 45.15918
1206.848, 43.84375
1207.330, 36.30273
1207.812, 29.48340
1208.294, 29.17480
1208.776, 31.33301
1209.258, 33.32129
1209.740, 34.79688
1210.222, 35.77539
1210.705, 36.37598
1211.187, 36.63086
1211.669, 36.68652
1212.151, 36.57715
1212.633, 38.14746
1213.115, 38.18359
1213.597, 31.68066
1214.079, 21.82129
1214.562, 21.32324
1215.044, 29.91992
1215.526, 34.85938
1216.008, 32.74121
1216.490, 29.13574
1216.972, 26.37207
1217.454, 25.58301
1217.936, 28.16699
1218.418, 33.27148
1218.901, 38.04102
1219.383, 42.31250
1219.865, 44.87695
1220.347, 45.06543
1220.829, 44.37598
1221.311, 43.69824
1221.793, 42.66602
1222.275, 40.64648
1222.757, 38.00879
1223.240, 38.42285
1223.722, 41.51270
1224.204, 41.17578
1224.686, 34.75000
1225.168, 26.78906
1225.650, 18.26172
1226.132, 11.63672
1226.614, 9.662109
1227.096, 11.47363
1227.579, 7.777344
1228.061, 0.6152340
1228.543, 7.084961
1229.025, 10.52344
1229.507, 8.278320
1229.989, 8.827148
1230.471, 25.21680
1230.953, 27.58008
1231.436, 17.73633
1231.918, 12.25586
1232.400, 10.87793
1232.882, 12.87402
1233.364, 21.62305
1233.846, 26.58496
1234.328, 19.27344
1234.810, 9.202148
1235.292, 1.816406
1235.775, 2.316406
1236.257, 4.755859
1236.739, 20.14062
1237.221, 28.11035
1237.703, 14.80469
1238.185, 4.463867
1238.667, 10.20801
1239.149, 18.34668
1239.632, 17.88086
1240.114, 11.18164
1240.596, 15.30762
1241.078, 27.06055
1241.560, 33.06934
1242.042, 19.30664
1242.524, 10.87402
1243.006, 17.30176
1243.489, 25.99023
1243.971, 26.03906
1244.453, 20.17676
1244.935, 20.19043
1245.417, 24.79102
1245.899, 28.64648
1246.381, 28.53027
1246.863, 29.10352
1247.345, 31.46191
1247.828, 33.91797
1248.310, 34.96582
1248.792, 35.06934
1249.274, 34.67676
1249.756, 34.40918
1250.238, 36.17480
1250.720, 44.59570
1251.202, 48.48828
1251.684, 45.32715
1252.167, 41.62891
1252.649, 44.93555
1253.131, 50.58594
1253.613, 47.45996
1254.095, 38.55957
1254.577, 34.37207
1255.059, 40.39941
1255.541, 45.28711
1256.023, 47.86523
1256.506, 50.94727
1256.988, 61.55273
1257.470, 71.11230
1257.952, 63.68555
1258.434, 45.13477
1258.916, 33.83691
1259.398, 34.81348
1259.880, 34.58301
1260.363, 32.23828
1260.845, 30.12793
1261.327, 32.02051
1261.809, 33.65820
1262.291, 28.11133
1262.773, 19.14746
1263.255, 17.76660
1263.737, 27.36133
1264.219, 28.52930
1264.702, 19.51270
1265.184, 8.454102
1265.666, 3.142578
1266.148, 10.09473
1266.630, 7.713867
1267.112, 0.7011720
1267.594, 9.740234
1268.076, 19.92188
1268.559, 23.29980
1269.041, 19.32520
1269.523, 14.12793
1270.005, 9.664063
1270.487, 7.292969
1270.969, 9.084961
1271.451, 12.68164
1271.933, 14.96973
1272.416, 16.01074
1272.898, 18.35254
1273.380, 21.72461
1273.862, 21.86523
1274.344, 9.111328
1274.826, 2.113281
1275.308, 10.91992
1275.790, 24.04395
1276.272, 26.34277
1276.755, 20.74805
1277.237, 18.60938
1277.719, 19.99707
1278.201, 20.12012
1278.683, 14.66895
1279.165, 11.07324
1279.647, 11.00488
1280.129, 12.43262
1280.611, 13.02441
1281.094, 13.37402
1281.576, 15.52148
1282.058, 18.82324
1282.540, 19.61133
1283.022, 14.10645
1283.504, 11.28711
1283.986, 12.05469
1284.468, 12.67383
1284.950, 16.44336
1285.433, 19.50879
1285.915, 18.42285
1286.397, 19.01465
1286.879, 17.71191
1287.361, 14.39844
1287.843, 13.03125
1288.325, 7.204102
1288.807, 3.483398
1289.290, 10.00195
1289.772, 18.90527
1290.254, 24.51953
1290.736, 26.78027
1291.218, 25.98828
1291.700, 21.62500
1292.182, 21.72559
1292.664, 26.72461
1293.146, 30.57812
1293.629, 28.25781
1294.111, 24.49414
1294.593, 22.34473
1295.075, 19.98730
1295.557, 13.64355
1296.039, 4.387695
1296.521, 2.548828
1297.003, 7.497070
1297.486, 10.54297
1297.968, 5.728516
1298.450, 2.178711
1298.932, 3.436523
1299.414, 5.656250
1299.896, 3.601563
1300.378, 0.3417970
1300.860, 1.182617
1301.343, 3.066406
1301.825, 0.0000000E+00
##END=



