##NAMES=Hydroxyapophyllite-(K)
##RRUFFID=R110121
##IDEAL CHEMISTRY=KCa_4_Si_8_O_20_(OH)&#183;8H_2_O
##LOCALITY=Kandivali quarry, Malad (near Poona), Marashtra State, India
##OWNER=RRUFF
##SOURCE=Marcus Origlieri
##DESCRIPTION=White to colorless prismatic crystals on a basalt matrix
##STATUS=The identification of this mineral has been confirmed by single-crystal X-ray diffraction.
##URL=rruff.info/R110121
178.8666, 0.0000000E+00
179.3488, 0.6613310
179.8309, 0.2174380
180.3130, 0.3264160
180.7951, 0.1049800
181.2772, 0.7667240
181.7593, 1.574646
182.2415, 2.580841
182.7236, 3.934616
183.2057, 5.624451
183.6878, 7.349777
184.1699, 8.653671
184.6520, 9.298752
185.1342, 9.879761
185.6163, 10.70337
186.0984, 11.32346
186.5805, 11.11278
187.0626, 9.851791
187.5447, 8.170639
188.0269, 7.059402
188.5090, 6.488358
188.9911, 6.363068
189.4732, 6.712509
189.9553, 7.479340
190.4374, 8.645508
190.9196, 10.30649
191.4017, 12.14825
191.8838, 13.65813
192.3659, 14.78951
192.8480, 16.10162
193.3301, 17.82234
193.8123, 19.92925
194.2944, 22.39207
194.7765, 25.43777
195.2586, 28.60752
195.7407, 31.33234
196.2228, 33.59592
196.7050, 35.98698
197.1871, 39.06381
197.6692, 42.75988
198.1513, 46.18765
198.6334, 49.14133
199.1155, 51.76011
199.5977, 53.80037
200.0798, 55.34114
200.5619, 57.31905
201.0440, 61.19944
201.5261, 67.52388
202.0082, 72.24139
202.4904, 73.78335
202.9725, 74.30613
203.4546, 74.62460
203.9367, 74.91935
204.4188, 75.12260
204.9009, 75.10511
205.3831, 74.74065
205.8652, 74.55274
206.3473, 74.62087
206.8294, 74.80370
207.3115, 75.21220
207.7936, 75.78497
208.2758, 76.24686
208.7579, 76.08285
209.2400, 74.97984
209.7221, 73.79688
210.2042, 72.49629
210.6863, 71.49361
211.1685, 70.82865
211.6506, 70.87673
212.1327, 70.93288
212.6148, 70.24590
213.0969, 68.27153
213.5790, 66.97020
214.0612, 66.80106
214.5433, 66.81616
215.0254, 66.15813
215.5075, 64.33347
215.9896, 61.99694
216.4717, 60.14937
216.9539, 58.93897
217.4360, 58.15956
217.9181, 58.14081
218.4002, 58.42314
218.8823, 58.56497
219.3644, 58.48547
219.8466, 58.33894
220.3287, 58.29285
220.8108, 58.30789
221.2929, 58.68373
221.7750, 59.68793
222.2571, 61.01125
222.7393, 62.23108
223.2214, 63.23317
223.7035, 64.28420
224.1856, 65.90034
224.6677, 68.03471
225.1498, 69.77351
225.6320, 70.75332
226.1141, 71.22414
226.5962, 71.65044
227.0783, 72.17222
227.5604, 72.41753
228.0425, 71.92309
228.5247, 70.82086
229.0068, 69.44142
229.4889, 68.12684
229.9710, 66.60286
230.4531, 64.12713
230.9352, 60.32128
231.4174, 56.21992
231.8995, 52.69947
232.3816, 49.56837
232.8637, 46.30454
233.3458, 42.57552
233.8279, 38.51100
234.3101, 34.37341
234.7922, 29.91815
235.2743, 25.92396
235.7564, 23.07548
236.2385, 20.94535
236.7206, 18.83074
237.2028, 15.78932
237.6849, 12.15223
238.1670, 9.298615
238.6491, 7.546661
239.1312, 6.215675
239.6133, 5.158020
240.0955, 4.236549
240.5776, 3.169250
241.0597, 1.682304
241.5418, 5.0266001E-02
242.0239, 1.090866
242.5060, 0.8127400
242.9882, 0.6816860
243.4703, 1.319347
243.9524, 2.329510
244.4345, 3.113194
244.9166, 3.295490
245.3987, 3.024178
245.8809, 2.995087
246.3630, 3.505581
246.8451, 3.879162
247.3272, 4.001278
247.8093, 3.911114
248.2914, 3.612442
248.7736, 3.087742
249.2557, 2.435398
249.7378, 2.072021
250.2199, 2.485569
250.7020, 2.576698
251.1841, 2.063622
251.6663, 1.205887
252.1484, 0.3071020
252.6305, 0.4890170
253.1126, 1.231041
253.5947, 2.086876
254.0768, 3.164413
254.5590, 4.231476
255.0411, 5.363735
255.5232, 6.445213
256.0053, 7.291126
256.4874, 7.823956
256.9695, 8.229942
257.4517, 8.958256
257.9338, 10.44893
258.4159, 11.75838
258.8980, 12.71214
259.3801, 13.55612
259.8622, 14.55871
260.3444, 15.81123
260.8265, 17.21312
261.3086, 18.58142
261.7907, 20.01519
262.2728, 21.24313
262.7549, 22.07060
263.2371, 22.78801
263.7192, 23.67461
264.2013, 24.80722
264.6834, 26.08986
265.1655, 27.41637
265.6476, 28.92072
266.1298, 30.07813
266.6119, 30.74522
267.0940, 31.13894
267.5761, 31.49072
268.0582, 31.84006
268.5403, 31.99978
269.0225, 31.72869
269.5046, 30.91819
269.9867, 30.05744
270.4688, 28.99924
270.9509, 27.99517
271.4330, 27.39380
271.9152, 27.20723
272.3973, 26.91516
272.8794, 25.91795
273.3615, 24.15579
273.8436, 22.92434
274.3257, 22.65321
274.8079, 22.62416
275.2900, 22.25230
275.7721, 21.52210
276.2542, 20.81999
276.7363, 20.43882
277.2184, 20.36532
277.7006, 20.25292
278.1827, 19.99608
278.6648, 19.78596
279.1469, 19.73685
279.6290, 19.84937
280.1111, 20.12770
280.5933, 20.65989
281.0754, 21.33729
281.5575, 21.78639
282.0396, 21.81649
282.5217, 21.85206
283.0038, 22.12576
283.4860, 22.62231
283.9681, 23.27271
284.4502, 24.08436
284.9323, 25.00946
285.4144, 25.93651
285.8965, 26.87159
286.3787, 27.79379
286.8608, 28.64626
287.3429, 29.46348
287.8250, 30.38482
288.3071, 31.46262
288.7892, 32.66091
289.2714, 33.89519
289.7535, 35.14095
290.2356, 36.53595
290.7177, 38.11152
291.1998, 39.88334
291.6819, 41.96326
292.1641, 44.48389
292.6462, 47.11636
293.1283, 49.58851
293.6104, 51.90458
294.0925, 53.94896
294.5746, 55.54269
295.0568, 56.83274
295.5389, 58.14086
296.0210, 59.54567
296.5031, 60.84921
296.9852, 61.81982
297.4673, 62.55529
297.9495, 63.30230
298.4316, 64.19859
298.9137, 65.11273
299.3958, 65.84797
299.8779, 66.39948
300.3600, 66.82335
300.8422, 67.08719
301.3243, 67.14495
301.8064, 66.89703
302.2885, 65.96861
302.7706, 65.14916
303.2527, 65.54848
303.7349, 67.25134
304.2170, 68.77201
304.6991, 69.13094
305.1812, 69.05318
305.6633, 69.56729
306.1454, 70.99300
306.6276, 72.57059
307.1097, 73.50346
307.5918, 73.85088
308.0739, 74.59609
308.5560, 76.28735
309.0381, 78.35259
309.5203, 80.18322
310.0024, 81.79325
310.4845, 83.15761
310.9666, 84.10543
311.4487, 84.70921
311.9308, 85.30647
312.4130, 85.82587
312.8951, 86.50142
313.3772, 87.73698
313.8593, 89.43379
314.3414, 90.75849
314.8235, 91.03522
315.3057, 90.65836
315.7878, 90.61821
316.2699, 91.01890
316.7520, 91.65376
317.2341, 92.40435
317.7162, 93.26454
318.1984, 94.26473
318.6805, 95.72121
319.1626, 97.19146
319.6447, 97.89698
320.1268, 97.72218
320.6089, 97.34814
321.0911, 97.16256
321.5732, 97.00828
322.0553, 96.67188
322.5374, 96.14487
323.0195, 95.36756
323.5016, 94.22576
323.9838, 92.71124
324.4659, 91.09782
324.9480, 89.50019
325.4301, 87.83863
325.9122, 86.03201
326.3943, 84.04224
326.8765, 82.00518
327.3586, 79.88624
327.8407, 77.74335
328.3228, 75.98525
328.8049, 74.85447
329.2870, 73.94312
329.7692, 72.89616
330.2513, 71.71901
330.7334, 70.36588
331.2155, 68.50967
331.6976, 66.48845
332.1797, 65.12040
332.6619, 64.56066
333.1440, 64.46321
333.6261, 64.86386
334.1082, 65.53593
334.5903, 65.91681
335.0724, 65.65739
335.5546, 65.10586
336.0367, 64.62569
336.5188, 64.20527
337.0009, 64.03568
337.4830, 64.45026
337.9651, 65.12806
338.4473, 65.50486
338.9294, 65.62513
339.4115, 65.26955
339.8936, 64.09053
340.3757, 62.17517
340.8578, 60.23583
341.3400, 58.61909
341.8221, 56.98746
342.3042, 54.78386
342.7863, 51.89741
343.2684, 49.05605
343.7505, 46.58968
344.2327, 44.42963
344.7148, 42.51006
345.1969, 40.94315
345.6790, 39.27340
346.1611, 36.71927
346.6432, 33.43957
347.1254, 30.50608
347.6075, 28.28036
348.0896, 26.51195
348.5717, 25.04934
349.0538, 23.88700
349.5359, 22.65493
350.0181, 20.87305
350.5002, 18.78164
350.9823, 17.39756
351.4644, 17.48111
351.9465, 17.68990
352.4286, 17.14685
352.9108, 15.94455
353.3929, 14.44208
353.8750, 12.64304
354.3571, 10.83143
354.8392, 9.745598
355.3214, 9.674011
355.8035, 9.555298
356.2856, 8.995056
356.7677, 8.138443
357.2498, 7.193150
357.7319, 6.192150
358.2141, 5.258392
358.6962, 4.634113
359.1783, 4.419453
359.6604, 3.875385
360.1425, 2.578278
360.6246, 1.122829
361.1068, 2.9620999E-02
361.5889, 0.6514130
362.0710, 1.058426
362.5531, 1.275059
363.0352, 1.297451
363.5173, 1.296921
363.9995, 1.142937
364.4816, 1.094887
364.9637, 1.429077
365.4458, 1.979424
365.9279, 2.294487
366.4100, 2.111763
366.8922, 1.601879
367.3743, 1.323769
367.8564, 1.460003
368.3385, 1.552074
368.8206, 1.612530
369.3027, 1.569584
369.7849, 1.293842
370.2670, 0.7607650
370.7491, 0.1221200
371.2312, 0.4386750
371.7133, 0.9803160
372.1954, 1.193932
372.6776, 0.7070080
373.1597, 0.2279470
373.6418, 0.1728400
374.1239, 0.5414580
374.6060, 1.155251
375.0881, 1.927845
375.5703, 2.841064
376.0524, 3.379513
376.5345, 3.095291
377.0166, 2.961575
377.4987, 3.263508
377.9808, 3.836025
378.4630, 4.399513
378.9451, 4.824120
379.4272, 5.242107
379.9093, 5.984241
380.3914, 7.335960
380.8735, 8.554131
381.3557, 9.430874
381.8378, 10.30288
382.3199, 11.35635
382.8020, 12.65709
383.2841, 14.25259
383.7662, 16.29604
384.2484, 18.93452
384.7305, 21.03927
385.2126, 22.08985
385.6947, 23.09241
386.1768, 24.24175
386.6589, 25.59123
387.1411, 27.16817
387.6232, 28.98911
388.1053, 31.06468
388.5874, 33.45738
389.0695, 36.39426
389.5516, 39.21537
390.0338, 41.63295
390.5159, 44.00858
390.9980, 46.71747
391.4801, 49.86187
391.9622, 53.05926
392.4443, 55.81607
392.9265, 58.06557
393.4086, 60.36285
393.8907, 62.86680
394.3728, 65.35475
394.8549, 67.76695
395.3370, 70.05349
395.8192, 72.06831
396.3013, 73.61172
396.7834, 74.81666
397.2655, 76.16383
397.7476, 77.81998
398.2297, 79.17136
398.7119, 79.79475
399.1940, 79.92939
399.6761, 79.86358
400.1582, 79.74834
400.6403, 79.29894
401.1224, 78.13878
401.6046, 76.27281
402.0867, 74.18491
402.5688, 71.89285
403.0509, 69.67206
403.5330, 67.86214
404.0151, 66.47202
404.4973, 65.01276
404.9794, 63.21481
405.4615, 61.22483
405.9436, 59.28729
406.4257, 57.44413
406.9078, 55.62111
407.3900, 53.71159
407.8721, 51.77800
408.3542, 50.07843
408.8363, 48.72051
409.3184, 47.52753
409.8005, 46.37181
410.2827, 45.28833
410.7648, 44.43322
411.2469, 43.89916
411.7290, 43.58199
412.2111, 43.21310
412.6932, 42.56169
413.1754, 42.40976
413.6575, 43.27192
414.1396, 44.49282
414.6217, 45.35274
415.1038, 45.74397
415.5859, 46.07140
416.0681, 46.73183
416.5502, 47.75591
417.0323, 48.83561
417.5144, 49.79840
417.9965, 50.97165
418.4786, 52.46783
418.9608, 54.26493
419.4429, 56.31245
419.9250, 58.60180
420.4071, 61.12582
420.8892, 63.84959
421.3713, 66.75316
421.8535, 69.91594
422.3356, 73.52229
422.8177, 77.22079
423.2998, 80.55945
423.7819, 83.61800
424.2640, 86.97317
424.7462, 91.21913
425.2283, 96.39594
425.7104, 101.8865
426.1925, 108.0621
426.6746, 114.1709
427.1567, 119.9266
427.6389, 125.5186
428.1210, 131.2946
428.6031, 137.4968
429.0852, 143.6696
429.5673, 148.9398
430.0494, 153.3024
430.5316, 156.8014
431.0137, 159.8772
431.4958, 161.6858
431.9779, 161.6290
432.4600, 159.6591
432.9421, 155.9806
433.4243, 150.3323
433.9064, 143.0078
434.3885, 135.2195
434.8706, 126.9168
435.3527, 118.3317
435.8348, 109.0556
436.3170, 99.65599
436.7991, 91.09586
437.2812, 83.94801
437.7633, 77.28685
438.2454, 70.14234
438.7275, 62.61714
439.2097, 55.56970
439.6918, 49.22659
440.1739, 43.65067
440.6560, 39.11237
441.1381, 35.60565
441.6202, 32.30193
442.1024, 29.05318
442.5845, 25.85284
443.0666, 22.60802
443.5487, 19.33617
444.0308, 16.41144
444.5129, 14.16664
444.9951, 12.54614
445.4772, 10.86545
445.9593, 9.139519
446.4414, 7.357445
446.9235, 5.342537
447.4056, 3.319450
447.8878, 1.621025
448.3699, 0.3592610
448.8520, 0.5950780
449.3341, 1.439278
449.8162, 2.183914
450.2983, 2.761330
450.7805, 3.017593
451.2626, 3.265114
451.7447, 3.792427
452.2268, 4.467354
452.7089, 4.904968
453.1910, 4.823822
453.6732, 4.348976
454.1553, 4.010536
454.6374, 3.906647
455.1195, 3.775940
455.6016, 3.682686
456.0837, 3.488174
456.5659, 3.021004
457.0480, 2.269875
457.5301, 1.471268
458.0122, 0.9458770
458.4943, 0.6800770
458.9764, 9.8655999E-02
459.4586, 1.005142
459.9407, 2.148811
460.4228, 2.992371
460.9049, 3.708176
461.3870, 4.627159
461.8691, 5.947189
462.3513, 7.377831
462.8334, 8.485641
463.3155, 9.289680
463.7976, 10.29958
464.2797, 11.73695
464.7618, 13.37621
465.2440, 14.91083
465.7261, 16.33793
466.2082, 17.86656
466.6903, 19.31793
467.1724, 21.04784
467.6545, 23.71683
468.1367, 27.30029
468.6188, 30.82174
469.1009, 33.53219
469.5830, 35.64726
470.0651, 38.35138
470.5472, 41.67294
471.0294, 45.41926
471.5115, 49.53946
471.9936, 54.04906
472.4757, 58.92487
472.9578, 64.17012
473.4399, 70.00439
473.9221, 76.74703
474.4042, 84.55004
474.8863, 92.38649
475.3684, 100.1666
475.8505, 108.1364
476.3326, 116.0129
476.8148, 124.1964
477.2969, 133.3380
477.7790, 143.6964
478.2611, 155.0344
478.7432, 166.8194
479.2253, 179.1584
479.7075, 191.5105
480.1896, 204.4799
480.6717, 216.8415
481.1538, 228.2710
481.6359, 238.5186
482.1180, 247.1144
482.6002, 253.9197
483.0823, 258.7774
483.5644, 261.3520
484.0465, 261.6602
484.5286, 259.5110
485.0107, 254.3221
485.4929, 246.7264
485.9750, 237.2243
486.4571, 225.7583
486.9392, 213.1715
487.4213, 199.4074
487.9034, 184.9509
488.3856, 170.9561
488.8677, 157.5073
489.3498, 144.4661
489.8319, 131.6231
490.3140, 119.0771
490.7961, 107.6801
491.2783, 97.53218
491.7604, 88.31016
492.2425, 79.86163
492.7246, 72.18908
493.2067, 65.31387
493.6888, 59.26419
494.1710, 53.87547
494.6531, 49.00439
495.1352, 44.71869
495.6173, 40.80463
496.0994, 37.25114
496.5815, 34.02042
497.0637, 31.18639
497.5458, 28.66678
498.0279, 26.31734
498.5100, 24.05845
498.9921, 21.89950
499.4742, 19.81580
499.9564, 17.77975
500.4385, 15.90137
500.9206, 14.03329
501.4027, 12.44169
501.8848, 11.48850
502.3669, 11.06054
502.8491, 10.57290
503.3312, 9.511604
503.8133, 8.125351
504.2954, 7.171577
504.7775, 6.778381
505.2596, 6.213676
505.7418, 4.897057
506.2239, 3.283463
506.7060, 2.039520
507.1881, 1.264801
507.6702, 0.6241150
508.1523, 6.8320997E-02
508.6345, 0.7004170
509.1166, 1.084335
509.5987, 1.208412
510.0808, 1.261543
510.5629, 1.362000
511.0450, 1.477272
511.5272, 1.539322
512.0093, 1.592659
512.4914, 1.573349
512.9735, 1.528175
513.4556, 1.368584
513.9377, 0.9142380
514.4199, 0.1274030
514.9020, 0.8013000
515.3841, 1.545616
515.8662, 1.974442
516.3483, 2.961494
516.8304, 5.128838
517.3126, 7.260628
517.7947, 8.795280
518.2768, 10.07738
518.7589, 11.71307
519.2410, 13.95592
519.7231, 16.41338
520.2053, 18.47433
520.6874, 20.08963
521.1695, 21.94172
521.6516, 23.97609
522.1337, 26.47972
522.6158, 29.86327
523.0980, 33.83652
523.5801, 37.55872
524.0622, 40.40314
524.5443, 43.18170
525.0264, 46.86952
525.5085, 51.33011
525.9907, 55.50581
526.4728, 58.93745
526.9549, 62.19810
527.4370, 66.20487
527.9191, 71.13423
528.4012, 75.86092
528.8834, 80.00162
529.3655, 84.14436
529.8476, 88.76331
530.3297, 93.74974
530.8118, 98.69092
531.2939, 103.3762
531.7761, 107.8387
532.2582, 112.1211
532.7403, 115.8452
533.2224, 120.0947
533.7045, 125.5212
534.1866, 130.8312
534.6688, 135.3844
535.1509, 139.1547
535.6330, 142.3036
536.1151, 144.8228
536.5972, 146.9425
537.0793, 149.4373
537.5615, 152.5235
538.0436, 155.0531
538.5257, 156.6376
539.0078, 157.5093
539.4899, 157.6798
539.9720, 157.2057
540.4542, 156.7999
540.9363, 157.0647
541.4184, 157.4780
541.9005, 157.2579
542.3826, 156.3982
542.8647, 155.3428
543.3469, 154.2823
543.8290, 153.2073
544.3111, 152.0775
544.7932, 150.8527
545.2753, 149.6832
545.7574, 148.5773
546.2396, 147.5341
546.7217, 146.5038
547.2038, 145.5197
547.6859, 144.7557
548.1680, 144.3625
548.6501, 144.2202
549.1323, 143.7787
549.6144, 142.7824
550.0965, 141.9318
550.5786, 140.9679
551.0607, 140.4027
551.5428, 140.7396
552.0250, 141.9088
552.5071, 143.3430
552.9892, 144.7368
553.4713, 146.0575
553.9534, 147.1847
554.4355, 148.0683
554.9177, 148.9814
555.3998, 149.8031
555.8819, 150.9036
556.3640, 152.8199
556.8461, 155.6552
557.3282, 158.5196
557.8104, 160.7880
558.2925, 163.0823
558.7746, 166.2303
559.2567, 170.2199
559.7388, 174.3263
560.2209, 178.1418
560.7031, 181.7761
561.1852, 185.5867
561.6673, 189.8570
562.1494, 193.9639
562.6315, 197.2088
563.1136, 200.8283
563.5958, 205.7791
564.0779, 212.0153
564.5600, 218.9029
565.0421, 226.1198
565.5242, 233.4781
566.0063, 240.1606
566.4885, 245.5763
566.9706, 251.8090
567.4527, 259.7706
567.9348, 268.4610
568.4169, 277.3553
568.8990, 286.3377
569.3812, 295.4116
569.8633, 304.1610
570.3454, 313.1055
570.8275, 323.3388
571.3096, 334.7696
571.7917, 345.7690
572.2739, 355.6089
572.7560, 364.9122
573.2381, 374.8138
573.7202, 385.4031
574.2023, 396.3323
574.6844, 407.8741
575.1666, 419.5189
575.6487, 431.4823
576.1308, 443.2262
576.6129, 453.4345
577.0950, 461.4394
577.5771, 468.1543
578.0593, 475.7448
578.5414, 485.0251
579.0235, 492.8503
579.5056, 498.5626
579.9877, 503.2680
580.4698, 507.8784
580.9520, 511.7965
581.4341, 513.6805
581.9162, 512.8323
582.3983, 509.9063
582.8804, 505.6559
583.3625, 500.0689
583.8447, 493.2226
584.3268, 485.2156
584.8089, 475.8135
585.2910, 464.5508
585.7731, 451.5548
586.2552, 438.1691
586.7374, 424.7491
587.2195, 410.7189
587.7016, 395.7660
588.1837, 380.0605
588.6658, 363.7997
589.1479, 347.0684
589.6301, 330.0656
590.1122, 312.7366
590.5943, 294.8746
591.0764, 278.7899
591.5585, 265.6508
592.0406, 252.9564
592.5228, 240.4121
593.0049, 227.8387
593.4870, 214.8509
593.9691, 201.3339
594.4512, 188.5124
594.9333, 177.7079
595.4155, 168.5403
595.8976, 159.4802
596.3797, 150.4436
596.8618, 141.5679
597.3439, 132.9147
597.8260, 124.5472
598.3082, 116.5804
598.7903, 108.9646
599.2724, 101.8812
599.7545, 95.37017
600.2366, 89.42522
600.7188, 84.17091
601.2009, 79.54366
601.6830, 75.37276
602.1651, 71.58723
602.6472, 67.99146
603.1293, 63.77837
603.6115, 58.07376
604.0936, 53.38431
604.5757, 50.42791
605.0578, 47.94797
605.5399, 45.23679
606.0220, 42.33036
606.5042, 39.56084
606.9863, 37.16194
607.4684, 34.95574
607.9505, 32.59742
608.4326, 30.09109
608.9147, 27.80303
609.3969, 25.87888
609.8790, 24.10554
610.3611, 22.17997
610.8432, 20.12635
611.3253, 18.47186
611.8074, 17.66137
612.2896, 16.85548
612.7717, 15.64627
613.2538, 14.13282
613.7359, 12.38425
614.2180, 10.45398
614.7001, 8.677322
615.1823, 7.477554
615.6644, 6.887901
616.1465, 6.162468
616.6286, 5.010071
617.1107, 4.141098
617.5928, 3.999527
618.0750, 4.063713
618.5571, 3.782837
619.0392, 3.059875
619.5213, 2.227112
620.0034, 1.481598
620.4855, 0.8206630
620.9677, 0.2473600
621.4498, 0.2337880
621.9319, 0.7196660
622.4140, 1.321236
622.8961, 1.887283
623.3782, 2.029778
623.8604, 1.558022
624.3425, 1.323151
624.8246, 1.616997
625.3067, 1.994324
625.7888, 2.261345
626.2709, 2.364220
626.7531, 2.180107
627.2352, 1.630135
627.7173, 1.001366
628.1994, 0.8552700
628.6815, 1.282768
629.1636, 1.699150
629.6458, 2.109085
630.1279, 2.459587
630.6100, 2.776718
631.0921, 3.031414
631.5742, 3.164783
632.0563, 3.182529
632.5385, 2.927109
633.0206, 1.991314
633.5027, 0.8297500
633.9848, 0.4284060
634.4669, 0.8965380
634.9490, 1.358109
635.4312, 1.150932
635.9133, 0.4199750
636.3954, 7.1479999E-02
636.8775, 5.6039998E-03
637.3596, 6.7424998E-02
637.8417, 0.3232080
638.3239, 0.6798900
638.8060, 1.142933
639.2881, 1.670509
639.7702, 2.137356
640.2523, 2.439274
640.7344, 2.699909
641.2166, 3.229748
641.6987, 4.043930
642.1808, 4.606258
642.6629, 4.730938
643.1450, 4.724041
643.6271, 4.750874
644.1093, 4.865211
644.5914, 5.257042
645.0735, 6.073689
645.5556, 6.932056
646.0377, 7.728821
646.5198, 8.485493
647.0020, 9.244362
647.4841, 9.999836
647.9662, 10.65173
648.4483, 11.08485
648.9304, 11.34323
649.4125, 11.75638
649.8947, 12.38779
650.3768, 13.06765
650.8589, 13.76655
651.3410, 14.48278
651.8231, 15.19622
652.3052, 15.92664
652.7874, 16.76521
653.2695, 17.96115
653.7516, 19.08867
654.2337, 19.38740
654.7158, 19.09742
655.1979, 19.36873
655.6801, 20.57768
656.1622, 22.00380
656.6443, 22.87605
657.1264, 23.16902
657.6085, 23.47326
658.0906, 23.77330
658.5728, 24.10929
659.0549, 24.49208
659.5370, 24.90775
660.0191, 25.43968
660.5012, 26.03413
660.9833, 26.40139
661.4655, 26.24529
661.9476, 25.71900
662.4297, 25.29198
662.9118, 24.97193
663.3939, 24.69408
663.8760, 24.46176
664.3582, 24.24308
664.8403, 24.01903
665.3224, 23.78967
665.8045, 23.50375
666.2866, 23.20435
666.7687, 22.78468
667.2509, 22.15638
667.7330, 21.38363
668.2151, 20.54879
668.6972, 19.68029
669.1793, 18.80982
669.6614, 17.94114
670.1436, 17.08464
670.6257, 16.40018
671.1078, 15.99191
671.5899, 15.53062
672.0720, 14.88807
672.5541, 14.17327
673.0363, 13.47403
673.5184, 12.78864
674.0005, 12.03045
674.4826, 11.07230
674.9647, 10.08294
675.4468, 9.146152
675.9290, 8.312592
676.4111, 7.762012
676.8932, 7.552891
677.3753, 7.496761
677.8574, 7.398697
678.3395, 7.261496
678.8217, 7.026989
679.3038, 6.609047
679.7859, 6.159496
680.2680, 5.628025
680.7501, 5.119553
681.2322, 4.794472
681.7144, 4.666632
682.1965, 4.515512
682.6786, 4.088474
683.1607, 3.595242
683.6428, 3.497599
684.1249, 3.738361
684.6071, 3.771143
685.0892, 3.419407
685.5713, 2.915619
686.0534, 2.461794
686.5355, 2.031275
687.0176, 1.669895
687.4998, 1.346992
687.9819, 1.126595
688.4640, 1.230886
688.9461, 1.319969
689.4282, 0.9265370
689.9103, 9.9779002E-02
690.3925, 0.5701010
690.8746, 0.5498790
691.3567, 8.2298003E-02
691.8388, 0.2300700
692.3209, 0.3431150
692.8030, 0.2569960
693.2852, 7.7836998E-02
693.7673, 0.3881400
694.2494, 0.4181440
694.7315, 0.2107640
695.2136, 3.1559002E-02
695.6957, 0.1875880
696.1779, 0.3051010
696.6600, 0.2054880
697.1421, 1.1965000E-02
697.6242, 0.1687220
698.1063, 0.3020130
698.5884, 0.3650650
699.0706, 0.3271260
699.5527, 0.2294670
700.0348, 0.1875920
700.5169, 0.2044700
700.9990, 0.2897400
701.4811, 0.6117130
701.9633, 0.7708840
702.4454, 0.2343010
702.9275, 0.7698330
703.4096, 1.484396
703.8917, 1.715137
704.3738, 1.772444
704.8560, 1.695175
705.3381, 1.567059
705.8202, 1.505178
706.3023, 1.504593
706.7844, 1.438173
707.2665, 1.200506
707.7487, 0.9049090
708.2308, 0.8995210
708.7129, 1.259314
709.1950, 1.557930
709.6771, 1.721485
710.1592, 1.846376
710.6414, 2.111368
711.1235, 2.368443
711.6056, 2.221264
712.0877, 1.311861
712.5698, 0.6888350
713.0519, 1.142586
713.5341, 1.991915
714.0162, 2.502857
714.4983, 2.613708
714.9804, 2.473591
715.4625, 2.146730
715.9446, 1.758541
716.4268, 1.569519
716.9089, 1.600145
717.3910, 1.744202
717.8731, 2.110977
718.3552, 2.436670
718.8373, 2.555809
719.3195, 2.578127
719.8016, 2.675358
720.2837, 2.893835
720.7658, 3.056654
721.2479, 3.099257
721.7300, 3.030191
722.2122, 2.733707
722.6943, 2.320122
723.1764, 2.164585
723.6585, 2.432993
724.1406, 2.907446
724.6227, 3.268400
725.1049, 3.511133
725.5870, 3.708771
726.0691, 3.924143
726.5512, 3.987865
727.0333, 3.720501
727.5154, 3.353811
727.9976, 3.110939
728.4797, 3.011793
728.9618, 2.965405
729.4439, 2.974277
729.9260, 2.985842
730.4081, 2.912504
730.8903, 2.809303
731.3724, 2.819859
731.8545, 2.982018
732.3366, 3.195410
732.8187, 3.341301
733.3008, 3.437319
733.7830, 3.750856
734.2651, 4.577486
734.7472, 4.980194
735.2293, 4.338573
735.7114, 3.537298
736.1935, 3.142752
736.6757, 3.133335
737.1578, 3.295219
737.6399, 3.684780
738.1220, 4.069536
738.6041, 4.367895
739.0862, 4.525675
739.5684, 4.346504
740.0505, 3.870668
740.5326, 3.495628
741.0147, 3.523771
741.4968, 3.833002
741.9789, 4.019049
742.4611, 4.005735
742.9432, 4.131727
743.4253, 4.578512
743.9074, 4.968065
744.3895, 5.046160
744.8716, 4.935184
745.3538, 4.874489
745.8359, 4.955482
746.3180, 4.934393
746.8001, 4.579380
747.2822, 4.133760
747.7643, 3.802805
748.2465, 3.598715
748.7286, 3.557873
749.2107, 3.704462
749.6928, 3.890623
750.1749, 3.868065
750.6570, 3.611448
751.1392, 3.486830
751.6213, 3.545673
752.1034, 3.625557
752.5855, 3.638159
753.0676, 3.674944
753.5497, 3.897736
754.0319, 4.308222
754.5140, 4.561712
754.9961, 4.456589
755.4782, 4.287224
755.9603, 4.199594
756.4424, 4.184563
756.9246, 4.239880
757.4067, 4.349079
757.8888, 4.436419
758.3709, 4.413603
758.8530, 4.340643
759.3351, 4.480295
759.8173, 4.897039
760.2994, 5.081692
760.7815, 4.786972
761.2636, 4.464911
761.7457, 4.542450
762.2278, 4.935129
762.7100, 5.226042
763.1921, 5.411570
763.6742, 5.486204
764.1563, 5.267746
764.6384, 5.087032
765.1205, 5.289639
765.6027, 5.757835
766.0848, 6.149860
766.5669, 6.313730
767.0490, 6.328384
767.5311, 6.292131
768.0132, 6.196190
768.4954, 5.944944
768.9775, 5.499334
769.4596, 5.195475
769.9417, 5.235598
770.4238, 5.433079
770.9059, 5.452511
771.3881, 5.207823
771.8702, 5.179342
772.3523, 5.664455
772.8344, 5.991076
773.3165, 5.755320
773.7986, 5.336784
774.2808, 5.187962
774.7629, 5.354969
775.2450, 5.539530
775.7271, 5.512701
776.2092, 5.422995
776.6913, 5.497599
777.1735, 5.702911
777.6556, 5.925556
778.1377, 6.144476
778.6198, 6.273222
779.1019, 6.183355
779.5840, 5.976347
780.0662, 6.207279
780.5483, 7.263952
781.0304, 8.021000
781.5125, 8.139605
781.9946, 8.230227
782.4767, 8.604122
782.9589, 9.157099
783.4410, 9.692602
783.9231, 10.18632
784.4052, 10.55085
784.8873, 10.56550
785.3694, 10.53297
785.8516, 10.79851
786.3337, 11.35755
786.8158, 12.16475
787.2979, 13.19725
787.7800, 14.21553
788.2621, 14.91286
788.7443, 15.29103
789.2264, 15.53331
789.7085, 15.60548
790.1906, 15.65599
790.6727, 15.90142
791.1548, 15.96833
791.6370, 15.43851
792.1191, 14.37974
792.6012, 13.23604
793.0833, 11.76167
793.5654, 10.58249
794.0475, 10.20754
794.5297, 10.06354
795.0118, 9.541937
795.4939, 8.666243
795.9760, 7.794065
796.4581, 7.112507
796.9402, 6.582655
797.4224, 6.214609
797.9045, 5.967001
798.3866, 5.554012
798.8687, 4.936752
799.3508, 4.326355
799.8329, 3.823858
800.3151, 3.397509
800.7972, 2.994886
801.2793, 2.600946
801.7614, 2.296701
802.2435, 2.144396
802.7256, 1.992565
803.2078, 1.742773
803.6899, 1.508795
804.1720, 1.464911
804.6541, 1.586348
805.1362, 1.602043
805.6183, 1.263319
806.1005, 0.8806000
806.5826, 0.8775560
807.0647, 1.058107
807.5468, 0.8901390
808.0289, 0.3275640
808.5110, 0.1116680
808.9932, 4.0127002E-02
809.4753, 0.3410740
809.9574, 0.4861550
810.4395, 0.3302780
810.9216, 0.2354430
811.4037, 0.2864090
811.8859, 0.2872960
812.3680, 8.1060000E-02
812.8501, 0.2070770
813.3322, 0.4220710
813.8143, 0.5674380
814.2964, 0.5617050
814.7786, 0.2027930
815.2607, 0.1168630
815.7428, 6.9355004E-02
816.2249, 0.1143250
816.7070, 4.0096000E-02
817.1891, 0.3155690
817.6713, 0.5890140
818.1534, 0.4660030
818.6355, 0.1450730
819.1176, 5.6130001E-03
819.5997, 2.7578000E-02
820.0818, 6.8112999E-02
820.5640, 0.1085050
821.0461, 9.4270997E-02
821.5282, 5.0496999E-02
822.0103, 0.2358420
822.4924, 0.1741240
822.9745, 0.3178500
823.4567, 0.6489070
823.9388, 0.7374630
824.4209, 0.7616270
824.9030, 0.8064400
825.3851, 0.8116250
825.8672, 0.6753900
826.3494, 0.3864990
826.8315, 9.7154997E-02
827.3136, 0.3058320
827.7957, 0.5065100
828.2778, 5.4299999E-03
828.7599, 0.8329580
829.2421, 1.202721
829.7242, 1.011761
830.2063, 0.7437020
830.6884, 0.7685600
831.1705, 0.6748770
831.6526, 0.6597630
832.1348, 0.8074870
832.6169, 0.8224430
833.0990, 1.124168
833.5811, 1.432829
834.0632, 1.624214
834.5453, 1.683655
835.0275, 1.546722
835.5096, 1.081444
835.9917, 0.8207490
836.4738, 0.8270490
836.9559, 0.9658810
837.4380, 1.353268
837.9202, 1.745129
838.4023, 1.824780
838.8844, 1.597754
839.3665, 1.406013
839.8486, 1.471161
840.3307, 1.604052
840.8129, 1.639774
841.2950, 1.594337
841.7771, 1.429138
842.2592, 1.182272
842.7413, 1.120968
843.2234, 1.435228
843.7056, 1.898432
844.1877, 1.994429
844.6698, 1.673964
845.1519, 1.608934
845.6340, 1.879311
846.1161, 2.244879
846.5983, 2.711952
847.0804, 3.123659
847.5625, 3.221321
848.0446, 2.984844
848.5267, 2.793941
849.0089, 2.664766
849.4910, 2.581459
849.9731, 2.628334
850.4552, 2.649956
850.9373, 2.445789
851.4194, 2.086639
851.9016, 1.852953
852.3837, 1.909992
852.8658, 1.959829
853.3479, 1.578539
853.8300, 1.074608
854.3121, 1.080379
854.7943, 1.526186
855.2764, 1.867653
855.7585, 1.868702
856.2406, 1.729277
856.7227, 1.708305
857.2048, 1.794937
857.6870, 1.834785
858.1691, 1.817966
858.6512, 1.842251
859.1333, 1.737436
859.6154, 1.710493
860.0975, 2.011625
860.5797, 2.578440
861.0618, 2.687395
861.5439, 2.078411
862.0260, 1.627979
862.5081, 1.344313
862.9902, 1.307993
863.4724, 1.454069
863.9545, 1.715193
864.4366, 1.897255
864.9187, 1.941612
865.4008, 1.915787
865.8829, 1.832108
866.3651, 1.750616
866.8472, 1.705235
867.3293, 1.686413
867.8114, 1.763441
868.2935, 1.928305
868.7756, 1.933006
869.2578, 1.542383
869.7399, 0.9898660
870.2220, 0.9025230
870.7041, 1.308176
871.1862, 1.697882
871.6683, 2.090042
872.1505, 2.218340
872.6326, 1.789175
873.1147, 1.168625
873.5968, 0.9822810
874.0789, 1.346931
874.5610, 1.660872
875.0432, 2.066912
875.5253, 2.309349
876.0074, 2.044195
876.4895, 1.727167
876.9716, 1.890789
877.4537, 2.400997
877.9359, 2.642111
878.4180, 2.303905
878.9001, 1.930471
879.3822, 1.818592
879.8643, 1.882607
880.3464, 2.132093
880.8286, 2.441732
881.3107, 2.525080
881.7928, 2.289009
882.2749, 1.906786
882.7570, 1.477716
883.2391, 1.085791
883.7213, 1.070122
884.2034, 1.400875
884.6855, 1.716045
885.1676, 1.943228
885.6497, 2.036133
886.1318, 1.920849
886.6140, 1.703562
887.0961, 1.808424
887.5782, 2.525337
888.0603, 2.826920
888.5424, 2.383654
889.0245, 2.035778
889.5067, 1.978371
889.9888, 2.108463
890.4709, 2.273825
890.9530, 2.505880
891.4351, 2.616440
891.9172, 2.592920
892.3994, 2.546833
892.8815, 2.433052
893.3636, 2.379482
893.8457, 2.371544
894.3278, 2.423801
894.8099, 2.416945
895.2921, 2.293793
895.7742, 2.157148
896.2563, 2.021299
896.7384, 1.979887
897.2205, 2.350044
897.7026, 2.986952
898.1848, 3.269508
898.6669, 3.015102
899.1490, 2.579618
899.6311, 2.275446
900.1132, 2.110817
900.5953, 2.185068
901.0775, 2.537615
901.5596, 2.663437
902.0417, 2.454494
902.5238, 2.136055
903.0059, 1.795092
903.4880, 1.468657
903.9702, 1.246588
904.4523, 1.148911
904.9344, 1.159054
905.4165, 1.374008
905.8986, 1.570742
906.3807, 1.714083
906.8629, 1.809275
907.3450, 1.884279
907.8271, 1.923508
908.3092, 1.855345
908.7913, 1.599510
909.2734, 1.361994
909.7556, 1.271942
910.2377, 1.206217
910.7198, 1.011013
911.2019, 0.7661190
911.6840, 0.6641050
912.1661, 0.7528700
912.6483, 0.8837800
913.1304, 1.056364
913.6125, 1.196827
914.0946, 1.157480
914.5767, 0.9794210
915.0588, 0.7283330
915.5410, 0.4427260
916.0231, 0.6872460
916.5052, 0.8146210
916.9873, 1.658061
917.4694, 1.870877
917.9515, 0.3988060
918.4337, 0.5236460
918.9158, 0.1618380
919.3979, 0.2529900
919.8800, 1.114682
920.3621, 0.7972730
920.8442, 0.5661380
921.3264, 0.6330810
921.8085, 0.3575550
922.2906, 0.3902340
922.7727, 0.3174720
923.2548, 6.4356998E-02
923.7369, 0.3164040
924.2191, 9.3640998E-02
924.7012, 0.3248500
925.1833, 0.5050570
925.6654, 0.3891530
926.1475, 0.2731510
926.6296, 0.2780410
927.1118, 0.2643770
927.5939, 0.1724120
928.0760, 1.7307000E-02
928.5581, 0.2488060
929.0402, 0.5618120
929.5223, 0.7521570
930.0045, 0.7523160
930.4866, 0.5623050
930.9687, 0.1110480
931.4508, 0.7995850
931.9329, 0.5059620
932.4150, 0.4220690
932.8972, 0.7392790
933.3793, 0.1467010
933.8614, 0.5967600
934.3435, 0.8465870
934.8256, 0.7547990
935.3077, 0.6811900
935.7899, 0.6194500
936.2720, 0.4166470
936.7541, 3.0947000E-02
937.2362, 0.1457840
937.7183, 0.1331410
938.2004, 0.5527860
938.6826, 0.6376000
939.1647, 0.3803250
939.6468, 0.1019690
940.1289, 0.2703190
940.6110, 0.4838140
941.0931, 0.4432190
941.5753, 0.2912340
942.0574, 5.7016000E-02
942.5395, 0.2014960
943.0216, 0.3173010
943.5037, 0.2168480
943.9858, 0.1977310
944.4680, 0.3910100
944.9501, 0.5385040
945.4322, 0.4556220
945.9143, 0.3438150
946.3964, 0.7288120
946.8785, 0.7908420
947.3607, 1.655521
947.8428, 1.900364
948.3249, 0.3301470
948.8070, 0.6347430
949.2891, 0.3185120
949.7712, 5.0556000E-02
950.2534, 1.363104
950.7355, 0.5094280
951.2176, 0.8749620
951.6997, 0.9586960
952.1818, 1.637327
952.6639, 1.026939
953.1461, 0.8143730
953.6282, 1.560150
954.1103, 1.636286
954.5924, 1.017405
955.0745, 0.4982640
955.5566, 0.4716190
956.0388, 0.6451420
956.5209, 0.5676990
957.0030, 0.3453080
957.4851, 0.6798950
957.9672, 1.566528
958.4493, 1.881594
958.9315, 1.319109
959.4136, 0.5594730
959.8957, 5.2710000E-02
960.3778, 0.2023960
960.8599, 0.1612610
961.3420, 0.2702790
961.8242, 0.5098130
962.3063, 0.5066470
962.7884, 0.4227450
963.2705, 0.2349800
963.7526, 8.6143002E-02
964.2347, 0.1529370
964.7169, 0.3985750
965.1990, 0.5538830
965.6811, 0.5423950
966.1632, 0.5563620
966.6453, 0.6351700
967.1274, 0.6944900
967.6096, 0.7836570
968.0917, 0.7842240
968.5738, 0.4117450
969.0559, 0.3061940
969.5380, 0.6321980
970.0201, 2.3677999E-02
970.5023, 0.5163250
970.9844, 0.5834370
971.4665, 0.4891660
971.9486, 0.5171950
972.4307, 0.5739500
972.9128, 0.3661650
973.3950, 0.1733340
973.8771, 0.6480200
974.3592, 0.5908150
974.8413, 0.3683280
975.3234, 0.2012330
975.8055, 0.1218190
976.2877, 4.9690001E-02
976.7698, 0.2069360
977.2519, 0.1180650
977.7340, 0.2607480
978.2161, 0.7385580
978.6982, 0.8413600
979.1804, 0.7349550
979.6625, 0.5438390
980.1446, 0.3004720
980.6267, 0.1462170
981.1088, 0.1186390
981.5909, 8.6700000E-02
982.0731, 7.3677003E-02
982.5552, 0.2775190
983.0373, 0.2815000
983.5194, 0.1250950
984.0015, 0.2716870
984.4836, 0.7374310
984.9658, 0.8605100
985.4479, 0.3890270
985.9300, 0.1072900
986.4121, 8.3370000E-02
986.8942, 0.2872830
987.3763, 0.3585700
987.8585, 6.1921999E-02
988.3406, 5.2074000E-02
988.8227, 0.4792290
989.3048, 0.9126430
989.7869, 1.178299
990.2690, 1.246183
990.7512, 1.127460
991.2333, 0.9004630
991.7154, 0.8359050
992.1975, 0.9678940
992.6796, 1.078009
993.1617, 1.092264
993.6439, 1.164675
994.1260, 1.398138
994.6081, 1.695250
995.0902, 1.995584
995.5723, 2.335657
996.0544, 2.468252
996.5366, 2.129038
997.0187, 1.899452
997.5008, 1.770330
997.9829, 1.862036
998.4650, 2.418669
998.9471, 3.212234
999.4293, 3.887394
999.9114, 4.409760
1000.393, 4.675394
1000.876, 4.265484
1001.358, 4.055727
1001.840, 4.630354
1002.322, 5.397848
1002.804, 5.894472
1003.286, 6.108194
1003.768, 6.070826
1004.250, 5.705202
1004.733, 5.660404
1005.215, 6.530760
1005.697, 7.343348
1006.179, 7.167963
1006.661, 6.640108
1007.143, 6.399002
1007.625, 6.465849
1008.107, 6.677631
1008.589, 6.898518
1009.072, 7.011354
1009.554, 6.748156
1010.036, 6.260376
1010.518, 5.680801
1011.000, 5.032383
1011.482, 4.231922
1011.964, 3.362213
1012.446, 2.814631
1012.929, 2.820248
1013.411, 3.017738
1013.893, 3.004166
1014.375, 2.853802
1014.857, 2.728868
1015.339, 2.603807
1015.821, 2.295818
1016.303, 1.809628
1016.785, 1.505495
1017.268, 1.639906
1017.750, 2.011187
1018.232, 2.386251
1018.714, 2.730946
1019.196, 2.787191
1019.678, 2.574068
1020.160, 2.436399
1020.642, 2.471052
1021.125, 2.714434
1021.607, 3.225307
1022.089, 3.856524
1022.571, 4.285765
1023.053, 4.517801
1023.535, 4.494986
1024.017, 4.194178
1024.499, 4.211149
1024.981, 4.760996
1025.464, 5.474180
1025.946, 6.014847
1026.428, 6.458517
1026.910, 7.017973
1027.392, 7.695484
1027.874, 8.525520
1028.356, 9.501366
1028.838, 10.49237
1029.321, 11.43702
1029.803, 12.45396
1030.285, 13.73680
1030.767, 14.49449
1031.249, 16.06753
1031.731, 16.23957
1032.213, 16.77154
1032.695, 17.80390
1033.177, 18.93888
1033.660, 20.02181
1034.142, 21.14512
1034.624, 22.34343
1035.106, 23.66862
1035.588, 25.40667
1036.070, 27.82520
1036.552, 29.98487
1037.034, 31.79722
1037.516, 33.50155
1037.999, 35.15047
1038.481, 36.72930
1038.963, 37.98701
1039.445, 39.07724
1039.927, 41.21577
1040.409, 45.33740
1040.891, 48.85025
1041.373, 50.93833
1041.855, 53.42901
1042.338, 57.18789
1042.820, 61.49574
1043.302, 65.52740
1043.784, 69.38420
1044.266, 73.99995
1044.748, 79.84807
1045.230, 85.67828
1045.712, 90.96526
1046.195, 96.74952
1046.677, 103.4968
1047.159, 110.9390
1047.641, 118.7846
1048.123, 127.0320
1048.605, 135.9191
1049.087, 145.4633
1049.569, 155.7501
1050.052, 166.9766
1050.534, 178.6714
1051.016, 190.3383
1051.498, 202.5475
1051.980, 215.8584
1052.462, 230.2994
1052.944, 245.8313
1053.426, 262.6208
1053.908, 280.2533
1054.391, 299.0677
1054.873, 318.1028
1055.355, 336.9286
1055.837, 355.7371
1056.319, 375.4593
1056.801, 395.6228
1057.283, 414.2012
1057.765, 431.1708
1058.248, 445.2415
1058.730, 456.3544
1059.212, 464.1911
1059.694, 469.1525
1060.176, 470.3563
1060.658, 466.4967
1061.140, 457.9177
1061.622, 446.3737
1062.104, 432.3045
1062.587, 415.4898
1063.069, 394.3823
1063.551, 372.2848
1064.033, 350.4938
1064.515, 329.1970
1064.997, 308.3127
1065.479, 287.9852
1065.961, 268.4822
1066.443, 249.9041
1066.926, 232.2954
1067.408, 215.6220
1067.890, 200.0148
1068.372, 185.2499
1068.854, 171.7313
1069.336, 160.2241
1069.818, 150.3586
1070.300, 140.7125
1070.782, 130.7374
1071.265, 121.4241
1071.747, 113.3214
1072.229, 105.7970
1072.711, 98.39050
1073.193, 91.40177
1073.675, 85.32795
1074.157, 80.09172
1074.639, 75.23605
1075.122, 70.63363
1075.604, 66.33142
1076.086, 62.26816
1076.568, 58.61681
1077.050, 55.70813
1077.532, 53.09837
1078.014, 50.21476
1078.496, 47.25986
1078.979, 44.91349
1079.461, 43.37104
1079.943, 41.87374
1080.425, 40.16969
1080.907, 38.32690
1081.389, 36.10348
1081.871, 34.00883
1082.353, 32.52951
1082.835, 31.55933
1083.318, 30.82886
1083.800, 30.28394
1084.282, 29.90683
1084.764, 30.03958
1085.246, 29.85250
1085.728, 28.60037
1086.210, 27.18048
1086.692, 26.36868
1087.175, 25.96060
1087.657, 25.52447
1088.139, 24.96820
1088.621, 24.36637
1089.103, 23.71768
1089.585, 23.08136
1090.067, 22.62865
1090.549, 22.05649
1091.031, 21.04381
1091.514, 19.83202
1091.996, 18.79306
1092.478, 17.93408
1092.960, 16.98428
1093.442, 15.76721
1093.924, 14.56733
1094.406, 13.52682
1094.888, 12.55639
1095.370, 11.50406
1095.853, 10.53779
1096.335, 9.947283
1096.817, 9.676931
1097.299, 9.338209
1097.781, 8.826771
1098.263, 8.260233
1098.745, 7.463776
1099.227, 6.826830
1099.709, 6.818895
1100.192, 6.922020
1100.674, 6.465637
1101.156, 5.632847
1101.638, 5.214830
1102.120, 5.494087
1102.602, 5.720097
1103.084, 5.770475
1103.566, 5.609837
1104.049, 5.074369
1104.531, 4.464520
1105.013, 3.866753
1105.495, 3.457428
1105.977, 3.694557
1106.459, 4.751085
1106.941, 5.421171
1107.423, 5.359686
1107.906, 5.110334
1108.388, 4.617624
1108.870, 4.190977
1109.352, 4.129267
1109.834, 4.220493
1110.316, 4.024105
1110.798, 3.488508
1111.280, 3.295557
1111.762, 3.923481
1112.245, 4.250725
1112.727, 3.764515
1113.209, 3.379200
1113.691, 3.717018
1114.173, 4.295292
1114.655, 4.548700
1115.137, 4.481489
1115.619, 4.190197
1116.102, 3.373516
1116.584, 2.874237
1117.066, 2.896341
1117.548, 2.957230
1118.030, 2.992327
1118.512, 2.876404
1118.994, 2.373446
1119.476, 1.638889
1119.958, 1.330667
1120.441, 1.719746
1120.923, 1.639153
1121.405, 0.8074380
1121.887, 0.1271570
1122.369, 0.1520040
1122.851, 0.2554990
1123.333, 0.3523010
1123.815, 0.3944420
1124.297, 0.2760260
1124.780, 0.2363990
1125.262, 0.1163850
1125.744, 0.1253780
1126.226, 0.2337990
1126.708, 0.6447960
1127.190, 0.9648550
1127.672, 0.9676210
1128.154, 0.7812310
1128.636, 0.5469740
1129.119, 0.2912390
1129.601, 0.3672370
1130.083, 8.8480003E-03
1130.565, 0.7006050
1131.047, 0.3263110
1131.529, 1.012518
1132.011, 0.8442540
1132.493, 0.3243670
1132.976, 9.6762002E-02
1133.458, 0.3599230
1133.940, 0.1765320
1134.422, 0.3935250
1134.904, 0.5378670
1135.386, 0.2403490
1135.868, 9.4036996E-02
1136.350, 0.3510420
1136.833, 0.4392130
1137.315, 0.2778250
1137.797, 2.4482001E-02
1138.279, 2.8726000E-02
1138.761, 4.0357001E-02
1139.243, 9.0502001E-02
1139.725, 0.3541610
1140.207, 0.4128410
1140.689, 0.2531290
1141.172, 0.2103480
1141.654, 0.4411710
1142.136, 0.6450970
1142.618, 0.4212680
1143.100, 5.9625000E-02
1143.582, 8.6002998E-02
1144.064, 0.3320980
1144.546, 0.4915940
1145.029, 0.5307270
1145.511, 0.4504180
1145.993, 0.2664550
1146.475, 8.3442003E-02
1146.957, 3.6525998E-02
1147.439, 0.1051480
1147.921, 0.1933120
1148.403, 0.1853090
1148.885, 0.2030610
1149.368, 0.7210930
1149.850, 0.9535010
1150.332, 0.8508330
1150.814, 0.5157950
1151.296, 7.3850997E-02
1151.778, 0.4974830
1152.260, 0.3702550
1152.742, 0.1553280
1153.224, 0.1342400
1153.707, 0.1919540
1154.189, 0.2145860
1154.671, 0.1967050
1155.153, 0.1197410
1155.635, 2.2582000E-02
1156.117, 1.6006000E-02
1156.599, 0.6002700
1157.081, 0.9599850
1157.563, 0.6803040
1158.046, 0.3096570
1158.528, 0.1841180
1159.010, 0.1764260
1159.492, 4.2580999E-02
1159.974, 0.1932440
1160.456, 0.2466080
1160.938, 1.3083000E-02
1161.420, 0.2506490
1161.903, 0.7149130
1162.385, 0.9461790
1162.867, 0.5545710
1163.349, 0.2076470
1163.831, 0.5502020
1164.313, 1.245479
1164.795, 1.441381
1165.277, 1.059511
1165.760, 0.8214500
1166.242, 0.7038130
1166.724, 0.8671780
1167.206, 1.497523
1167.688, 1.857576
1168.170, 1.491299
1168.652, 0.8879670
1169.134, 0.6612870
1169.616, 0.7522010
1170.099, 0.9390790
1170.581, 1.225169
1171.063, 1.302259
1171.545, 1.150633
1172.027, 1.041112
1172.509, 1.055458
1172.991, 1.102708
1173.473, 1.116085
1173.956, 1.106094
1174.438, 1.057477
1174.920, 1.009161
1175.402, 1.053119
1175.884, 1.213556
1176.366, 1.696125
1176.848, 2.419270
1177.330, 2.861116
1177.813, 2.803437
1178.295, 2.475191
1178.777, 1.926127
1179.259, 1.439030
1179.741, 1.499853
1180.223, 1.192416
1180.705, 1.598690
1181.187, 1.245855
1181.669, 1.259864
1182.151, 1.673069
1182.634, 1.963583
1183.116, 1.855248
1183.598, 1.751813
1184.080, 2.031021
1184.562, 2.225648
1185.044, 1.860212
1185.526, 1.388236
1186.008, 1.359176
1186.490, 1.602271
1186.973, 1.560833
1187.455, 1.104594
1187.937, 0.9215330
1188.419, 1.409239
1188.901, 1.789596
1189.383, 1.788180
1189.865, 1.773787
1190.347, 1.996376
1190.830, 2.242858
1191.312, 2.258328
1191.794, 2.098367
1192.276, 2.029254
1192.758, 2.113364
1193.240, 2.138995
1193.722, 2.088616
1194.204, 1.958982
1194.687, 1.684801
1195.169, 1.582817
1195.651, 1.909289
1196.133, 2.360189
1196.615, 2.436784
1197.097, 2.200989
1197.579, 2.129494
1198.061, 2.218339
1198.543, 2.151720
1199.026, 1.909113
1199.508, 1.752569
1199.990, 1.775445
1200.472, 1.905313
1200.954, 2.089346
1201.436, 2.238320
1201.918, 2.249442
1202.400, 2.137124
1202.883, 1.805169
1203.365, 1.426080
1203.847, 1.447788
1204.329, 1.814416
1204.811, 2.074959
1205.293, 2.045907
1205.775, 2.059053
1206.257, 2.506190
1206.740, 2.802734
1207.222, 2.366428
1207.704, 1.759849
1208.186, 1.548302
1208.668, 1.505809
1209.150, 1.145935
1209.632, 0.5220170
1210.114, 0.2627050
1210.596, 0.6387730
1211.078, 0.9279950
1211.561, 0.9466560
1212.043, 0.9252190
1212.525, 0.9178080
1213.007, 0.8990880
1213.489, 0.7535190
1213.971, 0.6689830
1214.453, 1.056036
1214.935, 0.8987690
1215.417, 0.8199850
1215.900, 1.016765
1216.382, 0.5802260
1216.864, 0.8113620
1217.346, 1.077634
1217.828, 1.204648
1218.310, 1.150808
1218.792, 0.8570350
1219.274, 0.5070610
1219.757, 0.4481530
1220.239, 0.6163270
1220.721, 0.7910870
1221.203, 0.9473770
1221.685, 0.9825880
1222.167, 0.9119690
1222.649, 0.9348630
1223.131, 1.105073
1223.614, 1.192496
1224.096, 0.9725920
1224.578, 0.7608630
1225.060, 0.9296880
1225.542, 1.261261
1226.024, 1.583715
1226.506, 1.834164
1226.988, 1.963927
1227.470, 1.961441
1227.953, 1.754280
1228.435, 1.326180
1228.917, 0.9924140
1229.399, 0.9196510
1229.881, 0.9181570
1230.363, 0.9530650
1230.845, 1.006785
1231.327, 1.072023
1231.810, 1.146141
1232.292, 1.289536
1232.774, 1.445323
1233.256, 1.361796
1233.738, 0.9188430
1234.220, 0.7849750
1234.702, 1.056380
1235.184, 1.294323
1235.667, 1.415277
1236.149, 1.515929
1236.631, 1.667875
1237.113, 1.670007
1237.595, 1.238264
1238.077, 0.6048250
1238.559, 0.5885110
1239.041, 1.048365
1239.523, 1.294565
1240.005, 1.314832
1240.488, 1.164552
1240.970, 0.9128590
1241.452, 0.8134570
1241.934, 0.9947090
1242.416, 1.181967
1242.898, 1.152923
1243.380, 0.9737530
1243.862, 0.5054570
1244.344, 9.4417997E-02
1244.827, 0.2842550
1245.309, 0.7374010
1245.791, 0.7404970
1246.273, 0.3407050
1246.755, 0.3215680
1247.237, 1.074265
1247.719, 1.522843
1248.201, 1.202964
1248.684, 0.9069890
1249.166, 0.8763060
1249.648, 0.8329310
1250.130, 0.5242820
1250.612, 0.2226110
1251.094, 0.3250830
1251.576, 0.7692810
1252.058, 1.119129
1252.541, 1.391457
1253.023, 1.200138
1253.505, 0.4866020
1253.987, 0.1817780
1254.469, 0.5094760
1254.951, 0.9282760
1255.433, 1.125383
1255.915, 1.206851
1256.397, 1.273624
1256.880, 1.311624
1257.362, 1.278127
1257.844, 1.199199
1258.326, 1.104655
1258.808, 1.025579
1259.290, 1.074416
1259.772, 1.207933
1260.254, 1.162662
1260.737, 0.8161570
1261.219, 0.4557990
1261.701, 1.7764000E-02
1262.183, 0.1158730
1262.665, 0.6076080
1263.147, 1.353982
1263.629, 1.488527
1264.111, 1.299515
1264.594, 1.191857
1265.076, 1.130135
1265.558, 1.029038
1266.040, 0.8745050
1266.522, 0.6594310
1267.004, 0.3395470
1267.486, 0.1573670
1267.968, 0.1770770
1268.450, 0.2109270
1268.932, 0.1937170
1269.415, 0.2660990
1269.897, 0.6456830
1270.379, 1.137117
1270.861, 1.164098
1271.343, 0.8516640
1271.825, 0.3916880
1272.307, 1.5659001E-02
1272.789, 0.3752080
1273.271, 1.408611
1273.754, 1.971142
1274.236, 1.655319
1274.718, 1.147012
1275.200, 0.5025790
1275.682, 0.1232720
1276.164, 0.4698910
1276.646, 0.8994430
1277.128, 1.044394
1277.611, 0.9884230
1278.093, 0.7961880
1278.575, 0.5088010
1279.057, 0.2210000
1279.539, 7.9399999E-03
1280.021, 2.5652001E-02
1280.503, 0.3003660
1280.985, 0.3964580
1281.468, 0.1648460
1281.950, 1.4500000E-03
1282.432, 5.8387000E-02
1282.914, 8.1031002E-02
1283.396, 0.1203440
1283.878, 6.6523001E-02
1284.360, 0.1034980
1284.842, 0.1585270
1285.324, 0.0000000E+00
##END=



