##NAMES=Hydroxyapophyllite-(K)
##RRUFFID=R050169
##IDEAL CHEMISTRY=KCa_4_Si_8_O_20_(OH)&#183;8H_2_O
##LOCALITY=Christmas mine, Christmas, Gila County, Arizona, USA
##OWNER=RRUFF
##SOURCE=Marcus Origlieri
##DESCRIPTION=Colorless prismatic crystals associated with kinoite, R050168
##STATUS=The identification of this mineral is confirmed by single-crystal X-ray diffraction and chemical analysis.
##URL=rruff.info/R050169
##MEASURED CHEMISTRY=K_1.00_Ca_4.00_Si_8.00_O_20_((OH)_0.98_F_0.02_)_Σ=1_·8H_2_O
153.0366, 0.0000000E+00
153.5188, 5.199219
154.0009, 121.7998
154.4830, 369.1973
154.9651, 652.1299
155.4472, 935.6504
155.9293, 1187.596
156.4115, 1461.432
156.8936, 1770.080
157.3757, 2114.130
157.8578, 2493.562
158.3399, 2901.061
158.8221, 3299.527
159.3042, 3674.012
159.7863, 4034.360
160.2684, 4359.611
160.7505, 4673.684
161.2326, 4981.911
161.7148, 5268.820
162.1969, 5441.843
162.6790, 5422.334
163.1611, 5203.551
163.6432, 4825.287
164.1253, 4368.660
164.6075, 3841.584
165.0896, 3243.330
165.5717, 2655.171
166.0538, 2090.483
166.5359, 1569.846
167.0180, 1120.607
167.5002, 750.8984
167.9823, 454.4248
168.4644, 237.4941
168.9465, 106.4463
169.4286, 13.84668
169.9107, 74.74512
170.3929, 150.1709
170.8750, 194.3193
171.3571, 193.3154
171.8392, 158.2246
172.3213, 99.70605
172.8034, 19.75195
173.2856, 82.60840
173.7677, 210.1641
174.2498, 362.1074
174.7319, 532.3340
175.2140, 713.1543
175.6961, 910.8701
176.1783, 1131.880
176.6604, 1368.391
177.1425, 1639.208
177.6246, 1979.717
178.1067, 2380.243
178.5888, 2803.492
179.0710, 3190.665
179.5531, 3573.969
180.0352, 4024.562
180.5173, 4574.988
180.9994, 5179.840
181.4815, 5766.281
181.9637, 6339.150
182.4458, 6882.242
182.9279, 7433.519
183.4100, 7961.123
183.8921, 8357.545
184.3742, 8593.504
184.8564, 8678.969
185.3385, 8625.542
185.8206, 8431.855
186.3027, 8113.074
186.7848, 7614.149
187.2669, 6963.420
187.7491, 6362.010
188.2312, 5892.087
188.7133, 5528.070
189.1954, 5157.388
189.6775, 4772.318
190.1596, 4425.645
190.6418, 4187.096
191.1239, 4056.074
191.6060, 3962.324
192.0881, 3876.299
192.5702, 3801.459
193.0524, 3768.189
193.5345, 3778.092
194.0166, 3825.018
194.4987, 3903.109
194.9808, 4013.105
195.4629, 4143.809
195.9451, 4290.076
196.4272, 4453.904
196.9093, 4627.904
197.3914, 4811.900
197.8735, 5007.170
198.3556, 5218.750
198.8378, 5437.441
199.3199, 5665.820
199.8020, 5903.102
200.2841, 6142.586
200.7662, 6384.541
201.2483, 6635.588
201.7305, 6892.230
202.2126, 7147.016
202.6947, 7403.887
203.1768, 7644.146
203.6589, 7861.229
204.1410, 8054.986
204.6232, 8208.543
205.1053, 8310.521
205.5874, 8375.549
206.0695, 8457.809
206.5516, 8570.609
207.0337, 8665.668
207.5159, 8710.730
207.9980, 8700.980
208.4801, 8659.223
208.9622, 8587.607
209.4443, 8486.041
209.9264, 8351.598
210.4086, 8178.512
210.8907, 7978.385
211.3728, 7770.695
211.8549, 7552.908
212.3370, 7325.398
212.8191, 7071.234
213.3013, 6801.559
213.7834, 6592.387
214.2655, 6444.227
214.7476, 6355.600
215.2297, 6335.061
215.7118, 6405.545
216.1940, 6480.900
216.6761, 6547.475
217.1582, 6605.949
217.6403, 6661.906
218.1224, 6712.795
218.6045, 6763.406
219.0867, 6817.398
219.5688, 6872.033
220.0509, 6934.395
220.5330, 7007.473
221.0151, 7093.271
221.4972, 7169.678
221.9794, 7232.035
222.4615, 7291.107
222.9436, 7364.084
223.4257, 7470.939
223.9078, 7551.840
224.3899, 7595.477
224.8721, 7603.145
225.3542, 7567.352
225.8363, 7481.352
226.3184, 7358.318
226.8005, 7216.242
227.2827, 7073.404
227.7648, 6868.078
228.2469, 6573.721
228.7290, 6180.793
229.2111, 5800.322
229.6932, 5448.230
230.1754, 5104.494
230.6575, 4732.203
231.1396, 4301.035
231.6217, 3892.041
232.1038, 3530.607
232.5859, 3224.293
233.0681, 2924.779
233.5502, 2629.225
234.0323, 2343.646
234.5144, 2071.148
234.9965, 1805.252
235.4786, 1566.869
235.9608, 1365.307
236.4429, 1209.936
236.9250, 1058.014
237.4071, 908.3984
237.8892, 763.8594
238.3713, 627.8750
238.8535, 496.8008
239.3356, 380.3535
239.8177, 281.8887
240.2998, 202.4238
240.7819, 137.8203
241.2640, 94.27148
241.7462, 61.18555
242.2283, 17.15625
242.7104, 56.19141
243.1925, 109.9355
243.6746, 121.2910
244.1567, 69.94727
244.6389, 47.04883
245.1210, 65.65625
245.6031, 104.8711
246.0852, 129.5176
246.5673, 140.6016
247.0494, 135.2402
247.5316, 109.8398
248.0137, 57.81250
248.4958, 7.513672
248.9779, 40.30273
249.4600, 86.48633
249.9421, 132.2285
250.4243, 182.2695
250.9064, 223.9551
251.3885, 248.3691
251.8706, 243.8145
252.3527, 264.2383
252.8348, 323.6035
253.3170, 399.1426
253.7991, 444.3652
254.2812, 441.8105
254.7633, 441.3574
255.2454, 465.2324
255.7275, 524.6211
256.2097, 566.6504
256.6918, 592.7207
257.1739, 600.5957
257.6560, 579.2754
258.1381, 507.6250
258.6202, 445.6855
259.1024, 417.8340
259.5845, 431.3398
260.0666, 452.0605
260.5487, 483.7363
261.0308, 519.7441
261.5129, 547.4473
261.9951, 559.1621
262.4772, 580.3613
262.9593, 628.6504
263.4414, 718.4199
263.9235, 765.3086
264.4056, 754.7871
264.8878, 715.4941
265.3699, 697.9316
265.8520, 707.8555
266.3341, 723.0859
266.8162, 738.8047
267.2983, 757.2266
267.7805, 760.6641
268.2626, 749.0273
268.7447, 722.2109
269.2268, 676.5469
269.7089, 607.1406
270.1910, 536.6973
270.6732, 475.2148
271.1553, 424.7656
271.6374, 356.8184
272.1195, 253.7812
272.6016, 158.9980
273.0837, 162.9512
273.5659, 288.5098
274.0480, 395.3047
274.5301, 415.1719
275.0122, 343.4492
275.4943, 318.7168
275.9764, 350.2012
276.4586, 411.3594
276.9407, 467.7227
277.4228, 518.8320
277.9049, 561.9863
278.3870, 588.1504
278.8691, 598.9941
279.3513, 638.4590
279.8334, 714.2988
280.3155, 798.7246
280.7976, 850.1523
281.2798, 866.4707
281.7619, 887.4238
282.2440, 934.9883
282.7261, 1003.309
283.2082, 1041.758
283.6903, 1043.754
284.1725, 1040.098
284.6546, 1073.514
285.1367, 1142.178
285.6188, 1207.127
286.1009, 1244.658
286.5830, 1268.180
287.0652, 1330.828
287.5473, 1433.701
288.0294, 1556.809
288.5115, 1672.900
288.9936, 1787.207
289.4757, 1930.391
289.9579, 2132.496
290.4400, 2363.762
290.9221, 2546.098
291.4042, 2680.646
291.8863, 2805.662
292.3684, 2950.414
292.8506, 3110.781
293.3327, 3286.123
293.8148, 3505.039
294.2969, 3725.508
294.7790, 3862.629
295.2611, 3915.035
295.7433, 3925.568
296.2254, 3936.107
296.7075, 3937.027
297.1896, 3899.145
297.6717, 3807.699
298.1538, 3678.518
298.6360, 3536.947
299.1181, 3380.881
299.6002, 3201.516
300.0823, 2969.488
300.5644, 2709.463
301.0465, 2468.299
301.5287, 2266.109
302.0108, 2082.379
302.4929, 1898.029
302.9750, 1711.002
303.4571, 1523.613
303.9392, 1325.408
304.4214, 1131.133
304.9035, 955.8984
305.3856, 806.4238
305.8677, 680.0527
306.3498, 580.6953
306.8319, 504.6934
307.3141, 439.8047
307.7962, 380.7578
308.2783, 329.4805
308.7604, 287.8164
309.2425, 258.6758
309.7246, 235.3848
310.2068, 218.7148
310.6889, 205.1543
311.1710, 185.6035
311.6531, 146.4688
312.1352, 105.2285
312.6173, 76.78125
313.0995, 68.75391
313.5816, 58.91602
314.0637, 27.15430
314.5458, 13.12109
315.0279, 36.95703
315.5100, 25.42578
315.9922, 2.021484
316.4743, 20.54688
316.9564, 39.11719
317.4385, 63.87305
317.9206, 114.2715
318.4027, 169.1855
318.8849, 199.1230
319.3670, 151.4629
319.8491, 116.7754
320.3312, 140.8398
320.8133, 241.0566
321.2954, 314.0664
321.7776, 317.0059
322.2597, 292.3047
322.7418, 285.1465
323.2239, 299.1074
323.7060, 334.0957
324.1881, 405.5254
324.6703, 519.3027
325.1524, 595.9102
325.6345, 597.9238
326.1166, 576.6348
326.5987, 573.5938
327.0808, 608.7910
327.5630, 638.9902
328.0451, 662.7363
328.5272, 679.6074
329.0093, 677.7949
329.4914, 633.6562
329.9735, 592.2148
330.4557, 583.3516
330.9378, 622.0039
331.4199, 668.8145
331.9020, 730.9688
332.3841, 800.8926
332.8662, 840.0625
333.3484, 838.0352
333.8305, 820.4414
334.3126, 798.9961
334.7947, 770.9902
335.2768, 749.3184
335.7589, 737.5020
336.2411, 730.4121
336.7232, 716.1914
337.2053, 695.1973
337.6874, 667.3691
338.1695, 632.0977
338.6516, 589.0977
339.1338, 536.5605
339.6159, 470.4629
340.0980, 403.1562
340.5801, 362.3145
341.0622, 351.1777
341.5443, 330.5449
342.0265, 278.9883
342.5086, 200.8340
342.9907, 129.3008
343.4728, 63.99023
343.9549, 10.82422
344.4370, 16.05664
344.9192, 21.02930
345.4013, 34.23633
345.8834, 76.96289
346.3655, 128.9180
346.8476, 120.2402
347.3297, 49.24219
347.8119, 11.62891
348.2940, 30.32617
348.7761, 139.6270
349.2582, 208.1758
349.7403, 188.7969
350.2225, 132.7812
350.7046, 117.6582
351.1867, 138.4473
351.6688, 151.3203
352.1509, 115.5176
352.6331, 54.31445
353.1152, 1.572266
353.5973, 36.35742
354.0794, 62.05078
354.5615, 70.02344
355.0436, 66.08984
355.5258, 67.73633
356.0079, 84.23242
356.4900, 110.7480
356.9721, 148.9180
357.4542, 207.7598
357.9363, 248.6855
358.4185, 223.0645
358.9006, 167.6816
359.3827, 146.2246
359.8648, 216.4512
360.3469, 300.8770
360.8290, 354.1074
361.3112, 366.1914
361.7933, 393.8164
362.2754, 476.2695
362.7575, 575.9043
363.2396, 652.1367
363.7217, 668.7051
364.2039, 686.9746
364.6860, 718.5449
365.1681, 764.1309
365.6502, 827.5156
366.1323, 928.3379
366.6144, 1035.875
367.0966, 1129.371
367.5787, 1204.951
368.0608, 1268.990
368.5429, 1318.805
369.0250, 1356.576
369.5071, 1391.379
369.9893, 1416.572
370.4714, 1446.248
370.9535, 1493.129
371.4356, 1587.229
371.9177, 1625.227
372.3998, 1581.723
372.8820, 1492.271
373.3641, 1443.184
373.8462, 1455.197
374.3283, 1454.973
374.8104, 1414.182
375.2925, 1330.674
375.7747, 1224.619
376.2568, 1090.557
376.7389, 943.1934
377.2210, 793.8984
377.7031, 640.3457
378.1852, 518.7676
378.6674, 441.3066
379.1495, 404.2578
379.6316, 399.5059
380.1137, 430.5957
380.5958, 461.3789
381.0779, 456.1152
381.5601, 420.1992
382.0422, 379.5039
382.5243, 336.5840
383.0064, 295.1172
383.4885, 257.5000
383.9706, 224.5801
384.4528, 204.4121
384.9349, 209.2871
385.4170, 228.6523
385.8991, 246.7871
386.3812, 263.0156
386.8633, 273.2383
387.3455, 267.9805
387.8276, 253.5684
388.3097, 244.5957
388.7918, 254.4082
389.2739, 268.7715
389.7560, 278.6465
390.2382, 283.7246
390.7203, 279.1445
391.2024, 257.3789
391.6845, 226.2109
392.1666, 194.3848
392.6487, 153.2090
393.1309, 122.8965
393.6130, 119.2637
394.0951, 139.4180
394.5772, 149.8359
395.0593, 126.9141
395.5414, 101.1055
396.0236, 91.58008
396.5057, 122.6270
396.9878, 144.4219
397.4699, 145.7285
397.9520, 133.5020
398.4341, 129.6914
398.9163, 145.2012
399.3984, 157.8848
399.8805, 160.3203
400.3626, 151.8496
400.8447, 132.4531
401.3268, 85.06250
401.8090, 37.44727
402.2911, 38.83789
402.7732, 116.8438
403.2553, 173.8203
403.7374, 170.8418
404.2195, 112.5527
404.7017, 105.2676
405.1838, 169.7969
405.6659, 242.3516
406.1480, 251.9023
406.6301, 193.4238
407.1122, 137.9551
407.5944, 93.78711
408.0765, 26.07187
408.5586, 94.31689
409.0407, 134.8242
409.5228, 149.0838
410.0049, 58.48199
410.4871, 103.2879
410.9692, 93.82816
411.4513, 114.0938
411.9334, 160.3672
412.4155, 170.3105
412.8976, 158.3672
413.3798, 165.9785
413.8619, 230.9258
414.3440, 317.6152
414.8261, 391.3613
415.3082, 450.9766
415.7903, 500.2969
416.2725, 520.2988
416.7546, 538.5879
417.2367, 587.5547
417.7188, 694.7969
418.2009, 818.2891
418.6830, 925.3047
419.1652, 1024.328
419.6473, 1148.814
420.1294, 1330.680
420.6115, 1527.668
421.0937, 1720.455
421.5758, 1899.248
422.0579, 2081.105
422.5400, 2252.910
423.0221, 2432.217
423.5042, 2651.797
423.9864, 2936.695
424.4685, 3231.541
424.9506, 3522.537
425.4327, 3802.418
425.9148, 4125.680
426.3969, 4516.896
426.8791, 4923.268
427.3612, 5291.957
427.8433, 5606.652
428.3254, 5937.715
428.8075, 6316.314
429.2896, 6708.193
429.7718, 7009.873
430.2539, 7233.584
430.7360, 7313.912
431.2181, 7191.621
431.7002, 6874.357
432.1823, 6460.590
432.6645, 5940.158
433.1466, 5362.617
433.6287, 4768.379
434.1108, 4170.127
434.5929, 3626.990
435.0750, 3184.307
435.5572, 2808.113
436.0393, 2421.592
436.5214, 2028.389
437.0035, 1705.279
437.4856, 1554.979
437.9677, 1502.254
438.4499, 1447.902
438.9320, 1375.799
439.4141, 1280.209
439.8962, 1131.367
440.3783, 953.8613
440.8604, 807.0273
441.3426, 746.0312
441.8247, 702.9844
442.3068, 633.1035
442.7889, 520.0488
443.2710, 436.8262
443.7531, 434.4121
444.2353, 459.4629
444.7174, 453.1699
445.1995, 359.5273
445.6816, 286.2246
446.1637, 252.8086
446.6458, 257.0703
447.1280, 277.5723
447.6101, 336.9336
448.0922, 387.6523
448.5743, 399.1113
449.0564, 349.2188
449.5385, 316.5430
450.0207, 296.3340
450.5028, 299.7324
450.9849, 359.7793
451.4670, 488.7715
451.9491, 611.7754
452.4312, 702.4785
452.9134, 761.6836
453.3955, 795.0371
453.8776, 798.4414
454.3597, 807.6426
454.8418, 858.3496
455.3239, 943.8496
455.8061, 1038.473
456.2882, 1147.844
456.7703, 1248.746
457.2524, 1300.988
457.7345, 1312.926
458.2166, 1320.455
458.6988, 1353.461
459.1809, 1387.508
459.6630, 1394.443
460.1451, 1371.350
460.6272, 1339.865
461.1093, 1301.670
461.5915, 1262.844
462.0736, 1231.801
462.5557, 1243.578
463.0378, 1234.416
463.5199, 1172.619
464.0020, 1063.529
464.4842, 949.3184
464.9663, 827.3574
465.4484, 711.3320
465.9305, 607.6270
466.4126, 511.7070
466.8947, 437.0020
467.3769, 397.7656
467.8590, 373.5664
468.3411, 329.0742
468.8232, 252.0059
469.3053, 178.9961
469.7874, 119.2031
470.2696, 72.10547
470.7517, 28.29102
471.2338, 13.11719
471.7159, 48.41602
472.1980, 80.70312
472.6801, 109.2871
473.1623, 97.83984
473.6444, 25.94141
474.1265, 58.32031
474.6086, 59.93945
475.0907, 8.996094
475.5728, 70.40234
476.0550, 77.32812
476.5371, 52.34766
477.0192, 27.25586
477.5013, 2.833984
477.9834, 14.53320
478.4655, 12.72852
478.9477, 3.197266
479.4298, 1.144531
479.9119, 18.06641
480.3940, 34.90234
480.8761, 31.85156
481.3582, 19.37109
481.8404, 27.64844
482.3225, 84.76953
482.8046, 149.8125
483.2867, 210.2715
483.7688, 273.1055
484.2509, 303.1758
484.7331, 273.5996
485.2152, 222.0059
485.6973, 181.3418
486.1794, 147.6016
486.6615, 134.1191
487.1436, 158.2695
487.6258, 204.8984
488.1079, 192.7715
488.5900, 99.93750
489.0721, 15.61133
489.5542, 6.751953
490.0363, 29.25195
490.5185, 42.13477
491.0006, 28.13281
491.4827, 9.458984
491.9648, 9.972656
492.4470, 26.44141
492.9291, 48.84766
493.4112, 82.47266
493.8933, 112.5391
494.3754, 107.2363
494.8575, 73.97266
495.3397, 50.21484
495.8218, 45.71094
496.3039, 62.67969
496.7860, 116.6914
497.2681, 227.9375
497.7502, 323.9473
498.2324, 365.6484
498.7145, 364.4512
499.1966, 343.4785
499.6787, 266.2324
500.1608, 213.1582
500.6429, 222.8203
501.1251, 290.7422
501.6072, 339.0508
502.0893, 349.2773
502.5714, 351.1543
503.0535, 360.5898
503.5356, 391.9746
504.0178, 393.0586
504.4999, 345.1230
504.9820, 283.8633
505.4641, 269.2773
505.9462, 312.2480
506.4283, 345.2109
506.9105, 348.0820
507.3926, 326.0781
507.8747, 294.2344
508.3568, 251.5957
508.8389, 215.6445
509.3210, 200.6211
509.8032, 201.9941
510.2853, 207.7539
510.7674, 216.6426
511.2495, 228.7715
511.7316, 252.3223
512.2137, 278.8945
512.6959, 290.9922
513.1780, 265.2969
513.6601, 236.3926
514.1422, 229.7070
514.6243, 242.0703
515.1064, 250.3691
515.5886, 248.3184
516.0707, 237.4824
516.5528, 217.5977
517.0349, 182.4688
517.5170, 151.1055
517.9991, 125.9922
518.4813, 105.4473
518.9634, 85.40234
519.4455, 48.69336
519.9276, 43.59570
520.4097, 92.07812
520.8918, 182.6875
521.3740, 244.9043
521.8561, 272.5820
522.3382, 292.0977
522.8203, 328.8477
523.3024, 379.5586
523.7845, 382.8594
524.2667, 323.3730
524.7488, 262.5918
525.2309, 289.0176
525.7130, 380.1953
526.1951, 457.2832
526.6772, 491.0527
527.1594, 500.3379
527.6415, 494.0176
528.1236, 477.6738
528.6057, 476.0898
529.0878, 503.5293
529.5699, 548.1934
530.0521, 612.6973
530.5342, 711.5781
531.0163, 771.5820
531.4984, 745.4238
531.9805, 681.8281
532.4626, 632.7422
532.9448, 611.2871
533.4269, 592.6836
533.9090, 579.3516
534.3911, 572.3223
534.8732, 569.4707
535.3553, 576.1602
535.8375, 576.0293
536.3196, 559.0430
536.8017, 523.8164
537.2838, 498.0957
537.7659, 486.2422
538.2480, 470.9297
538.7302, 424.4453
539.2123, 352.9961
539.6944, 305.6836
540.1765, 303.3574
540.6586, 310.7793
541.1407, 264.7539
541.6229, 182.2207
542.1050, 123.4902
542.5871, 147.4258
543.0692, 192.2559
543.5513, 204.8730
544.0334, 182.2344
544.5156, 144.5215
544.9977, 91.49414
545.4798, 32.76367
545.9619, 25.51172
546.4440, 108.0781
546.9261, 151.7344
547.4083, 113.9824
547.8904, 37.44727
548.3725, 6.146484
548.8546, 51.64844
549.3367, 90.43359
549.8188, 100.1016
550.3010, 82.78320
550.7831, 65.92383
551.2652, 46.10938
551.7473, 38.74023
552.2294, 71.08789
552.7115, 135.7285
553.1937, 147.5820
553.6758, 90.44922
554.1579, 20.05664
554.6400, 19.66992
555.1221, 63.76953
555.6042, 77.83594
556.0864, 6.808594
556.5685, 76.90820
557.0506, 92.39453
557.5327, 57.80664
558.0148, 40.05859
558.4969, 93.10352
558.9791, 157.1406
559.4612, 190.5605
559.9433, 179.8125
560.4254, 186.0781
560.9075, 233.8164
561.3896, 295.8594
561.8718, 347.9980
562.3539, 376.0039
562.8360, 418.8672
563.3181, 482.6035
563.8002, 560.7773
564.2823, 639.1641
564.7645, 715.7910
565.2466, 798.7168
565.7287, 894.1992
566.2108, 998.2832
566.6929, 1085.080
567.1750, 1152.875
567.6572, 1225.203
568.1393, 1321.031
568.6214, 1434.330
569.1035, 1548.957
569.5856, 1662.217
570.0677, 1782.084
570.5499, 1923.377
571.0320, 2075.447
571.5141, 2222.420
571.9962, 2334.312
572.4783, 2464.018
572.9604, 2646.352
573.4426, 2868.725
573.9247, 3071.021
574.4068, 3223.854
574.8889, 3371.004
575.3710, 3532.428
575.8531, 3714.551
576.3353, 3863.193
576.8174, 3960.621
577.2995, 4048.623
577.7816, 4178.293
578.2637, 4356.172
578.7458, 4494.928
579.2280, 4574.768
579.7101, 4623.260
580.1922, 4699.619
580.6743, 4794.066
581.1564, 4851.389
581.6385, 4830.693
582.1207, 4766.744
582.6028, 4709.855
583.0849, 4655.803
583.5670, 4568.410
584.0491, 4392.064
584.5313, 4195.834
585.0134, 4043.766
585.4955, 3973.955
585.9776, 3855.943
586.4597, 3609.105
586.9418, 3317.215
587.4240, 3078.078
587.9061, 2921.834
588.3882, 2773.963
588.8703, 2631.756
589.3524, 2491.412
589.8345, 2339.664
590.3167, 2172.639
590.7988, 2008.045
591.2809, 1859.436
591.7630, 1721.727
592.2451, 1570.643
592.7272, 1405.342
593.2094, 1246.693
593.6915, 1098.326
594.1736, 971.7207
594.6557, 900.2344
595.1378, 904.3359
595.6199, 904.0859
596.1021, 824.8652
596.5842, 707.6035
597.0663, 610.3145
597.5485, 556.9453
598.0306, 523.0840
598.5127, 514.3457
598.9948, 522.5703
599.4769, 512.4863
599.9590, 466.9219
600.4412, 420.9785
600.9233, 383.4980
601.4054, 353.7656
601.8875, 344.3535
602.3696, 363.2598
602.8517, 382.8828
603.3339, 376.5742
603.8160, 345.5117
604.2981, 312.0371
604.7802, 277.5020
605.2623, 258.1426
605.7444, 281.1914
606.2266, 332.3320
606.7087, 374.9336
607.1908, 389.3965
607.6729, 400.3965
608.1550, 435.2090
608.6371, 484.6113
609.1193, 520.2402
609.6014, 525.6816
610.0835, 515.8633
610.5656, 482.8691
611.0477, 419.9199
611.5298, 416.8672
612.0120, 526.5137
612.4941, 643.2383
612.9762, 694.8652
613.4583, 665.5000
613.9404, 633.3047
614.4225, 593.1152
614.9047, 558.2070
615.3868, 546.9629
615.8689, 558.7383
616.3510, 587.6289
616.8331, 639.7910
617.3152, 697.6738
617.7974, 733.0820
618.2795, 750.2012
618.7616, 767.5215
619.2437, 794.7207
619.7258, 826.1367
620.2079, 862.6914
620.6901, 903.8672
621.1722, 931.7363
621.6543, 931.6328
622.1364, 922.1328
622.6185, 915.4863
623.1006, 917.2891
623.5828, 908.2207
624.0649, 865.9238
624.5470, 833.2559
625.0291, 874.8184
625.5112, 1010.852
625.9933, 1112.518
626.4755, 1153.289
626.9576, 1150.541
627.4397, 1122.982
627.9218, 1075.727
628.4039, 1047.908
628.8860, 1084.158
629.3682, 1137.709
629.8503, 1131.676
630.3324, 1075.234
630.8145, 1038.689
631.2966, 1097.582
631.7787, 1167.236
632.2609, 1180.105
632.7430, 1108.084
633.2251, 1056.543
633.7072, 1060.910
634.1893, 1085.102
634.6714, 1098.664
635.1536, 1090.809
635.6357, 1097.477
636.1178, 1126.709
636.5999, 1165.660
637.0820, 1191.877
637.5641, 1205.020
638.0463, 1208.482
638.5284, 1195.537
639.0105, 1180.564
639.4926, 1195.883
639.9747, 1237.578
640.4568, 1281.748
640.9390, 1317.715
641.4211, 1349.150
641.9032, 1373.236
642.3853, 1387.359
642.8674, 1409.023
643.3495, 1447.564
643.8317, 1496.799
644.3138, 1552.719
644.7959, 1615.398
645.2780, 1658.508
645.7601, 1659.613
646.2422, 1667.439
646.7244, 1756.129
647.2065, 1950.537
647.6886, 2090.227
648.1707, 2136.449
648.6528, 2127.369
649.1349, 2121.512
649.6171, 2122.725
650.0992, 2157.262
650.5813, 2253.205
651.0634, 2379.303
651.5455, 2517.189
652.0276, 2659.688
652.5098, 2761.455
652.9919, 2742.797
653.4740, 2719.281
653.9561, 2775.189
654.4382, 2937.367
654.9203, 3063.172
655.4025, 3099.934
655.8846, 3124.453
656.3667, 3197.807
656.8488, 3353.838
657.3309, 3435.547
657.8130, 3412.252
658.2952, 3363.754
658.7773, 3413.719
659.2594, 3550.551
659.7415, 3660.070
660.2236, 3715.195
660.7057, 3729.211
661.1879, 3695.193
661.6700, 3628.871
662.1521, 3580.160
662.6342, 3609.730
663.1163, 3635.518
663.5984, 3607.717
664.0806, 3532.730
664.5627, 3443.715
665.0448, 3321.371
665.5269, 3202.225
666.0090, 3112.855
666.4911, 3065.539
666.9733, 2965.379
667.4554, 2792.160
667.9375, 2607.699
668.4196, 2461.027
668.9017, 2353.494
669.3839, 2253.320
669.8660, 2160.770
670.3481, 2062.215
670.8302, 1925.924
671.3123, 1773.248
671.7944, 1652.816
672.2766, 1600.553
672.7587, 1553.967
673.2408, 1461.904
673.7229, 1347.148
674.2050, 1252.613
674.6871, 1218.467
675.1693, 1175.338
675.6514, 1099.270
676.1335, 996.5703
676.6156, 896.4590
677.0977, 786.0742
677.5798, 709.4277
678.0620, 707.7598
678.5441, 767.4258
679.0262, 740.7520
679.5083, 622.2461
679.9904, 503.4941
680.4725, 463.7480
680.9547, 471.8379
681.4368, 477.0566
681.9189, 474.4082
682.4010, 460.8340
682.8831, 432.9570
683.3652, 393.7129
683.8474, 343.8516
684.3295, 251.4785
684.8116, 199.7578
685.2937, 245.2207
685.7758, 317.7891
686.2579, 320.0391
686.7401, 216.6523
687.2222, 141.8496
687.7043, 127.7461
688.1864, 148.5918
688.6685, 136.9297
689.1506, 95.61523
689.6328, 71.85547
690.1149, 103.3965
690.5970, 153.8281
691.0791, 166.2871
691.5612, 146.8320
692.0433, 126.4082
692.5255, 126.2676
693.0076, 126.4902
693.4897, 112.4551
693.9718, 81.59961
694.4539, 55.09180
694.9360, 36.03320
695.4182, 21.86328
695.9003, 10.14062
696.3824, 1.203125
696.8645, 3.746094
697.3466, 32.52344
697.8287, 57.88867
698.3109, 34.18750
698.7930, 24.39453
699.2751, 30.46484
699.7572, 47.21875
700.2393, 120.6699
700.7214, 67.99609
701.2036, 45.78125
701.6857, 111.9531
702.1678, 57.39258
702.6499, 11.13477
703.1320, 61.76562
703.6141, 97.06055
704.0963, 123.8398
704.5784, 147.8047
705.0605, 156.1934
705.5426, 140.6133
706.0247, 107.7383
706.5068, 88.66602
706.9890, 84.76953
707.4711, 82.14453
707.9532, 71.13086
708.4353, 56.70312
708.9174, 51.69531
709.3995, 55.70703
709.8817, 65.56250
710.3638, 76.08984
710.8459, 93.37891
711.3280, 136.9199
711.8101, 217.0996
712.2922, 246.3828
712.7744, 152.5449
713.2565, 34.33008
713.7386, 41.26172
714.2207, 54.73828
714.7028, 78.29297
715.1849, 121.0469
715.6671, 158.4512
716.1492, 156.4980
716.6313, 119.0859
717.1134, 96.30859
717.5955, 102.0410
718.0776, 107.8066
718.5598, 69.24023
719.0419, 6.695313
719.5240, 40.70703
720.0061, 65.91602
720.4882, 65.08398
720.9703, 6.144531
721.4525, 78.13477
721.9346, 113.0293
722.4167, 39.43750
722.8988, 19.77734
723.3809, 40.02148
723.8630, 29.22852
724.3452, 9.710938
724.8273, 24.11133
725.3094, 25.43164
725.7915, 56.85938
726.2736, 177.1172
726.7557, 206.8125
727.2379, 155.5664
727.7200, 99.16602
728.2021, 66.02148
728.6842, 63.18555
729.1663, 116.5625
729.6484, 230.2852
730.1306, 303.2930
730.6127, 270.2559
731.0948, 218.1387
731.5769, 195.1230
732.0590, 208.8535
732.5411, 219.5527
733.0233, 226.6035
733.5054, 232.0430
733.9875, 231.6582
734.4696, 228.6680
734.9517, 253.2031
735.4338, 313.6250
735.9160, 371.7422
736.3981, 385.6914
736.8802, 373.2500
737.3623, 359.7031
737.8444, 349.0410
738.3266, 343.4648
738.8087, 336.4434
739.2908, 337.5293
739.7729, 362.6875
740.2551, 437.0820
740.7372, 489.2227
741.2193, 504.9414
741.7014, 499.2227
742.1835, 497.9082
742.6656, 500.9199
743.1478, 524.8203
743.6299, 587.2637
744.1120, 657.5918
744.5941, 685.7910
745.0762, 680.4707
745.5583, 670.0430
746.0405, 654.5723
746.5226, 647.9941
747.0047, 671.5645
747.4868, 719.6328
747.9689, 751.0449
748.4510, 739.5742
748.9332, 728.7188
749.4153, 733.5508
749.8974, 753.8789
750.3795, 774.0293
750.8616, 792.4941
751.3438, 816.3496
751.8259, 846.9219
752.3080, 885.7969
752.7901, 950.4473
753.2722, 1038.211
753.7543, 1100.596
754.2365, 1061.357
754.7186, 1013.707
755.2007, 1040.137
755.6828, 1164.506
756.1649, 1276.254
756.6470, 1371.143
757.1292, 1435.191
757.6113, 1450.256
758.0934, 1391.584
758.5755, 1390.137
759.0576, 1454.080
759.5397, 1533.807
760.0219, 1588.383
760.5040, 1625.061
760.9861, 1664.473
761.4682, 1714.465
761.9503, 1741.391
762.4324, 1692.873
762.9146, 1617.273
763.3967, 1572.391
763.8788, 1593.924
764.3609, 1611.459
764.8430, 1617.910
765.3251, 1612.168
765.8073, 1592.293
766.2894, 1557.818
766.7715, 1510.766
767.2536, 1450.154
767.7357, 1380.016
768.2178, 1294.773
768.7000, 1202.592
769.1821, 1142.506
769.6642, 1146.613
770.1463, 1154.479
770.6284, 1112.912
771.1105, 1037.203
771.5927, 954.5879
772.0748, 841.9004
772.5569, 768.2715
773.0390, 782.4531
773.5211, 839.2812
774.0032, 814.0488
774.4854, 676.8633
774.9675, 583.3262
775.4496, 595.9121
775.9317, 664.9902
776.4138, 661.9941
776.8959, 601.5859
777.3781, 554.7578
777.8602, 583.6660
778.3423, 619.5488
778.8244, 589.9121
779.3065, 508.2773
779.7886, 451.2246
780.2708, 489.5762
780.7529, 516.8750
781.2350, 482.3691
781.7171, 395.9414
782.1992, 362.8125
782.6813, 391.6543
783.1635, 436.6270
783.6456, 484.8125
784.1277, 529.8711
784.6098, 561.3066
785.0919, 579.4922
785.5740, 589.7324
786.0562, 582.9570
786.5383, 578.9688
787.0204, 601.2617
787.5025, 650.4258
787.9846, 685.1367
788.4667, 703.5586
788.9489, 695.9629
789.4310, 645.3320
789.9131, 547.0566
790.3952, 508.1055
790.8773, 540.2559
791.3594, 578.2090
791.8416, 572.4531
792.3237, 535.0488
792.8058, 490.4941
793.2879, 440.1641
793.7700, 404.7363
794.2521, 419.2500
794.7343, 440.6270
795.2164, 434.7363
795.6985, 395.1582
796.1806, 334.8730
796.6627, 225.6074
797.1448, 129.3496
797.6270, 95.88477
798.1091, 137.2891
798.5912, 139.4902
799.0733, 96.20312
799.5554, 43.53906
800.0375, 9.507813
800.5197, 6.830078
801.0018, 1.042969
801.4839, 38.39844
801.9660, 61.30859
802.4481, 21.95508
802.9302, 30.41602
803.4124, 50.95117
803.8945, 3.779297
804.3766, 4.943359
804.8587, 48.51562
805.3408, 109.0781
805.8229, 122.4590
806.3051, 88.99609
806.7872, 66.08398
807.2693, 61.47656
807.7514, 49.10938
808.2335, 18.60156
808.7156, 104.7520
809.1978, 150.4414
809.6799, 134.0293
810.1620, 108.6426
810.6441, 89.07812
811.1262, 75.04297
811.6083, 65.24219
812.0905, 51.89844
812.5726, 63.21875
813.0547, 109.4355
813.5368, 161.2871
814.0189, 179.7949
814.5010, 171.2266
814.9832, 173.6133
815.4653, 194.8105
815.9474, 218.5117
816.4295, 235.1191
816.9116, 243.3301
817.3937, 239.0391
817.8759, 205.2871
818.3580, 190.5352
818.8401, 224.3516
819.3222, 268.5703
819.8043, 286.6406
820.2864, 272.1816
820.7686, 260.3770
821.2507, 254.0742
821.7328, 251.8516
822.2149, 250.8359
822.6970, 252.5000
823.1791, 261.2461
823.6613, 279.0312
824.1434, 300.3594
824.6255, 324.7090
825.1076, 349.0000
825.5897, 369.3398
826.0718, 375.1523
826.5540, 392.1426
827.0361, 423.8027
827.5182, 462.9570
828.0003, 510.2324
828.4824, 564.7969
828.9645, 579.3477
829.4467, 537.8125
829.9288, 492.4707
830.4109, 505.9766
830.8930, 554.0020
831.3751, 600.3027
831.8572, 635.8555
832.3394, 667.3145
832.8215, 699.5195
833.3036, 727.4648
833.7857, 745.2070
834.2678, 746.3555
834.7499, 753.6191
835.2321, 765.7539
835.7142, 790.1113
836.1963, 858.6719
836.6784, 950.3887
837.1605, 967.7793
837.6426, 870.2461
838.1248, 797.6465
838.6069, 903.8281
839.0890, 1072.836
839.5711, 1173.916
840.0532, 1137.594
840.5353, 1109.178
841.0175, 1096.818
841.4996, 1097.199
841.9817, 1110.785
842.4638, 1138.420
842.9459, 1155.439
843.4280, 1156.529
843.9102, 1162.607
844.3923, 1220.068
844.8744, 1290.383
845.3565, 1304.494
845.8386, 1233.783
846.3207, 1164.221
846.8029, 1116.256
847.2850, 1094.414
847.7671, 1104.889
848.2492, 1166.533
848.7313, 1207.281
849.2134, 1222.627
849.6956, 1227.748
850.1777, 1239.299
850.6598, 1253.475
851.1419, 1256.094
851.6240, 1244.883
852.1061, 1228.115
852.5883, 1210.955
853.0704, 1191.820
853.5525, 1163.199
854.0346, 1107.697
854.5167, 1100.768
854.9988, 1181.205
855.4810, 1264.447
855.9631, 1287.059
856.4452, 1247.982
856.9273, 1211.002
857.4094, 1176.906
857.8915, 1155.887
858.3737, 1176.250
858.8558, 1205.580
859.3379, 1194.385
859.8200, 1133.516
860.3021, 1086.020
860.7842, 1107.834
861.2664, 1119.596
861.7485, 1068.051
862.2306, 938.3203
862.7127, 884.1367
863.1948, 918.7363
863.6769, 960.7891
864.1591, 953.4766
864.6412, 911.2148
865.1233, 856.7910
865.6054, 796.1426
866.0875, 766.1543
866.5696, 817.7949
867.0518, 867.3691
867.5339, 863.7168
868.0160, 799.9629
868.4981, 738.1680
868.9802, 667.5098
869.4623, 625.2559
869.9445, 642.3125
870.4266, 698.1465
870.9087, 690.1816
871.3908, 624.6855
871.8729, 569.2988
872.3550, 558.6973
872.8372, 580.2773
873.3193, 651.5117
873.8014, 756.1836
874.2835, 809.4453
874.7656, 738.0527
875.2477, 661.1973
875.7299, 609.0449
876.2120, 578.0723
876.6941, 546.9062
877.1762, 518.3438
877.6583, 514.3457
878.1404, 560.8848
878.6226, 615.8184
879.1047, 609.4434
879.5869, 563.3828
880.0690, 539.0801
880.5511, 599.3828
881.0332, 639.8457
881.5153, 614.8633
881.9974, 557.8184
882.4796, 540.6328
882.9617, 575.4375
883.4438, 575.6328
883.9259, 501.2207
884.4080, 417.5176
884.8901, 456.9629
885.3723, 570.9629
885.8544, 638.8184
886.3365, 585.0469
886.8186, 525.8242
887.3007, 518.1895
887.7828, 534.5430
888.2650, 534.4355
888.7471, 509.5879
889.2292, 490.4980
889.7113, 483.6074
890.1934, 473.9824
890.6755, 427.1133
891.1577, 368.3066
891.6398, 352.7129
892.1219, 405.3574
892.6040, 457.7129
893.0861, 457.7285
893.5682, 434.1836
894.0504, 427.6641
894.5325, 453.8574
895.0146, 466.8359
895.4967, 469.0254
895.9788, 462.5000
896.4609, 454.6562
896.9431, 445.9004
897.4252, 441.3242
897.9073, 441.2832
898.3894, 434.1367
898.8715, 400.4062
899.3536, 363.2715
899.8358, 339.6680
900.3179, 331.3613
900.8000, 342.1211
901.2821, 391.8320
901.7642, 430.2598
902.2463, 430.1152
902.7285, 397.5703
903.2106, 378.7695
903.6927, 373.5117
904.1748, 373.3789
904.6569, 374.4023
905.1390, 377.2168
905.6212, 386.4551
906.1033, 399.0332
906.5854, 402.2656
907.0675, 386.8301
907.5496, 367.7578
908.0317, 346.7676
908.5139, 325.4414
908.9960, 302.7832
909.4781, 278.8594
909.9602, 282.2461
910.4423, 336.8984
910.9244, 400.8066
911.4066, 434.9258
911.8887, 439.0566
912.3708, 412.9609
912.8529, 319.4062
913.3350, 242.4492
913.8171, 199.0117
914.2993, 177.8984
914.7814, 170.0488
915.2635, 177.1719
915.7456, 172.4883
916.2277, 149.4121
916.7098, 126.1035
917.1920, 133.7832
917.6741, 151.0781
918.1562, 142.3184
918.6383, 89.98828
919.1204, 49.41211
919.6025, 37.47656
920.0847, 43.51172
920.5668, 67.58984
921.0489, 117.1172
921.5310, 128.5156
922.0131, 99.00781
922.4952, 54.83203
922.9774, 7.789063
923.4595, 59.42578
923.9416, 37.11328
924.4237, 55.91211
924.9058, 122.4297
925.3879, 107.9082
925.8701, 73.46094
926.3522, 34.34375
926.8343, 4.480469
927.3164, 7.693359
927.7985, 78.33203
928.2806, 130.7480
928.7628, 113.2910
929.2449, 72.39062
929.7270, 99.95898
930.2091, 164.9043
930.6912, 183.7773
931.1733, 54.55664
931.6555, 46.45703
932.1376, 45.82617
932.6197, 6.875000
933.1018, 36.35742
933.5839, 42.84570
934.0660, 21.96094
934.5482, 33.86523
935.0303, 96.46680
935.5124, 140.4062
935.9945, 163.1309
936.4766, 157.5000
936.9587, 112.6660
937.4409, 65.64453
937.9230, 23.24219
938.4051, 13.36914
938.8872, 46.35938
939.3693, 80.10352
939.8514, 79.29883
940.3336, 39.34375
940.8157, 1.027344
941.2978, 1.685547
941.7799, 13.40820
942.2620, 3.988281
942.7441, 30.23828
943.2263, 50.70508
943.7084, 33.92383
944.1905, 8.216797
944.6726, 16.51562
945.1547, 40.21875
945.6368, 66.57227
946.1190, 96.98438
946.6011, 109.0332
947.0832, 82.59180
947.5653, 43.56836
948.0474, 8.722656
948.5295, 124.7031
949.0117, 34.45703
949.4938, 20.65820
949.9759, 42.56250
950.4580, 68.18359
950.9401, 7.707031
951.4222, 15.89062
951.9044, 26.91406
952.3865, 57.57422
952.8686, 34.02148
953.3507, 48.92188
953.8328, 62.16211
954.3149, 107.2832
954.7971, 114.4668
955.2792, 206.9707
955.7613, 255.2656
956.2434, 228.1504
956.7255, 174.4590
957.2076, 112.6641
957.6898, 43.79492
958.1719, 14.20703
958.6540, 23.30078
959.1361, 43.47461
959.6182, 53.82422
960.1003, 68.06250
960.5825, 107.7969
961.0646, 166.7109
961.5467, 204.5391
962.0288, 183.8008
962.5109, 190.0469
962.9930, 256.5938
963.4752, 350.4766
963.9573, 373.1016
964.4394, 339.2578
964.9215, 343.6699
965.4036, 428.3359
965.8857, 539.7969
966.3679, 660.7324
966.8500, 771.6387
967.3321, 846.4434
967.8142, 853.8828
968.2963, 877.0371
968.7784, 924.9277
969.2606, 970.6113
969.7427, 996.4922
970.2248, 997.3887
970.7069, 941.6875
971.1890, 828.0742
971.6711, 717.7559
972.1533, 652.8887
972.6354, 604.2637
973.1175, 557.4258
973.5996, 510.9863
974.0817, 371.8320
974.5638, 431.0957
975.0460, 455.2656
975.5281, 446.2441
976.0102, 304.5801
976.4923, 334.1836
976.9744, 295.0703
977.4565, 253.0137
977.9387, 306.6230
978.4208, 184.3438
978.9029, 236.6621
979.3850, 219.3223
979.8671, 233.9102
980.3492, 179.3965
980.8314, 223.6641
981.3135, 253.5605
981.7956, 267.4707
982.2777, 249.4590
982.7598, 221.6484
983.2419, 222.5586
983.7241, 260.1484
984.2062, 306.5020
984.6883, 386.4941
985.1704, 437.3730
985.6525, 417.9258
986.1346, 336.5918
986.6168, 296.9629
987.0989, 298.1504
987.5810, 312.5625
988.0631, 319.4082
988.5452, 336.5137
989.0273, 389.6211
989.5095, 461.3516
989.9916, 523.0801
990.4737, 574.4297
990.9558, 610.5332
991.4379, 624.4219
991.9200, 628.9570
992.4022, 647.7637
992.8843, 672.8730
993.3664, 664.4434
993.8485, 606.9531
994.3306, 578.0605
994.8127, 668.2266
995.2949, 788.6934
995.7770, 851.8516
996.2591, 838.6523
996.7412, 883.1777
997.2233, 1004.020
997.7054, 1109.680
998.1876, 1120.039
998.6697, 1084.490
999.1518, 1117.898
999.6339, 1209.854
1000.116, 1313.498
1000.598, 1435.773
1001.080, 1532.355
1001.562, 1569.842
1002.044, 1585.145
1002.527, 1644.092
1003.009, 1747.205
1003.491, 1870.438
1003.973, 2015.154
1004.455, 2145.643
1004.937, 2200.686
1005.419, 2226.096
1005.901, 2287.291
1006.384, 2413.438
1006.866, 2478.193
1007.348, 2441.248
1007.830, 2372.062
1008.312, 2306.281
1008.794, 2247.389
1009.276, 2144.160
1009.758, 2003.373
1010.240, 1882.861
1010.723, 1826.445
1011.205, 1784.107
1011.687, 1718.873
1012.169, 1638.012
1012.651, 1564.793
1013.133, 1506.164
1013.615, 1437.631
1014.097, 1360.238
1014.580, 1258.754
1015.062, 1075.561
1015.544, 864.8164
1016.026, 736.9707
1016.508, 724.6250
1016.990, 727.4395
1017.472, 739.2949
1017.954, 720.9277
1018.436, 639.9004
1018.919, 500.9785
1019.401, 390.9707
1019.883, 309.8867
1020.365, 260.5938
1020.847, 268.7910
1021.329, 289.6172
1021.811, 276.3770
1022.293, 240.7949
1022.776, 211.5684
1023.258, 193.1602
1023.740, 186.7441
1024.222, 204.0801
1024.704, 213.7969
1025.186, 151.5254
1025.668, 44.62500
1026.150, 4.390625
1026.632, 22.14258
1027.115, 54.07812
1027.597, 44.01953
1028.079, 29.09180
1028.561, 33.20117
1029.043, 56.01758
1029.525, 93.18750
1030.007, 146.5781
1030.489, 194.5039
1030.972, 233.9219
1031.454, 254.2637
1031.936, 224.0352
1032.418, 165.9531
1032.900, 129.0820
1033.382, 138.4648
1033.864, 157.1602
1034.346, 182.4551
1034.828, 218.9258
1035.311, 280.1270
1035.793, 357.9980
1036.275, 389.7793
1036.757, 369.6230
1037.239, 359.9727
1037.721, 421.5742
1038.203, 496.6582
1038.685, 538.3652
1039.167, 551.1074
1039.650, 602.1777
1040.132, 705.8047
1040.614, 781.0566
1041.096, 779.0430
1041.578, 757.0605
1042.060, 780.4863
1042.542, 849.7695
1043.024, 972.0508
1043.507, 1190.307
1043.989, 1377.562
1044.471, 1500.791
1044.953, 1601.420
1045.435, 1696.779
1045.917, 1791.072
1046.399, 1956.877
1046.881, 2192.900
1047.364, 2455.293
1047.846, 2732.434
1048.328, 3009.064
1048.810, 3244.518
1049.292, 3468.174
1049.774, 3802.014
1050.256, 4284.295
1050.738, 4738.053
1051.220, 5116.156
1051.703, 5483.572
1052.185, 5931.824
1052.667, 6423.242
1053.149, 6889.871
1053.631, 7312.133
1054.113, 7739.523
1054.595, 8208.398
1055.077, 8662.230
1055.559, 9108.000
1056.042, 9517.670
1056.524, 9686.406
1057.006, 9636.180
1057.488, 9546.594
1057.970, 9559.512
1058.452, 9518.193
1058.934, 9321.738
1059.416, 8999.137
1059.899, 8617.695
1060.381, 8176.918
1060.863, 7681.963
1061.345, 7123.281
1061.827, 6546.086
1062.309, 5965.367
1062.791, 5401.670
1063.273, 4891.686
1063.755, 4434.182
1064.238, 4022.469
1064.720, 3681.127
1065.202, 3342.600
1065.684, 2978.170
1066.166, 2613.934
1066.648, 2334.574
1067.130, 2130.541
1067.612, 1934.654
1068.094, 1720.857
1068.577, 1522.564
1069.059, 1345.133
1069.541, 1202.344
1070.023, 1112.373
1070.505, 1090.977
1070.987, 1016.018
1071.469, 881.0195
1071.951, 747.3125
1072.434, 660.3848
1072.916, 594.4746
1073.398, 515.8379
1073.880, 430.2812
1074.362, 359.8828
1074.844, 287.7188
1075.326, 267.2715
1075.808, 313.8418
1076.291, 399.2227
1076.773, 484.8613
1077.255, 577.1875
1077.737, 705.0332
1078.219, 874.0879
1078.701, 1013.732
1079.183, 1048.521
1079.665, 1081.791
1080.147, 1166.789
1080.630, 1295.512
1081.112, 1420.812
1081.594, 1543.332
1082.076, 1680.008
1082.558, 1827.014
1083.040, 2010.172
1083.522, 2235.998
1084.004, 2519.400
1084.486, 2911.699
1084.969, 3589.775
1085.451, 3897.822
1085.933, 3803.928
1086.415, 3452.367
1086.897, 2798.318
1087.379, 2036.904
1087.861, 1509.910
1088.343, 1188.799
1088.826, 918.5000
1089.308, 652.4531
1089.790, 431.2266
1090.272, 266.8652
1090.754, 142.6641
1091.236, 32.38867
1091.718, 60.91406
1092.200, 119.2246
1092.682, 137.7559
1093.165, 144.3047
1093.647, 162.4648
1094.129, 167.4668
1094.611, 133.7324
1095.093, 70.24805
1095.575, 42.83008
1096.057, 52.88086
1096.539, 64.76172
1097.022, 64.51367
1097.504, 62.04297
1097.986, 90.01172
1098.468, 12.51172
1098.950, 82.84375
1099.432, 122.8730
1099.914, 33.14844
1100.396, 117.6035
1100.879, 136.3965
1101.361, 155.1777
1101.843, 272.4258
1102.325, 216.4688
1102.807, 337.9922
1103.289, 392.7031
1103.771, 482.2148
1104.253, 505.5684
1104.735, 553.1211
1105.218, 672.7930
1105.700, 577.3945
1106.182, 667.5547
1106.664, 766.1465
1107.146, 871.2715
1107.628, 982.3203
1108.110, 1112.566
1108.592, 1236.328
1109.074, 1331.475
1109.557, 1408.502
1110.039, 1515.889
1110.521, 1655.330
1111.003, 1743.088
1111.485, 1735.932
1111.967, 1724.391
1112.449, 1832.516
1112.931, 1960.301
1113.414, 1991.297
1113.896, 1894.715
1114.378, 1800.557
1114.860, 1711.508
1115.342, 1624.625
1115.824, 1530.930
1116.306, 1431.281
1116.788, 1318.893
1117.271, 1207.303
1117.753, 1120.932
1118.235, 1089.932
1118.717, 1054.479
1119.199, 1019.494
1119.681, 964.7305
1120.163, 846.9922
1120.645, 696.9570
1121.127, 606.7461
1121.609, 575.7402
1122.092, 565.2383
1122.574, 584.4961
1123.056, 592.8711
1123.538, 565.1699
1124.020, 517.1016
1124.502, 480.0352
1124.984, 453.0645
1125.466, 418.4473
1125.949, 371.6152
1126.431, 337.4355
1126.913, 355.8984
1127.395, 373.9395
1127.877, 335.9277
1128.359, 254.3750
1128.841, 251.3457
1129.323, 333.0254
1129.806, 378.4238
1130.288, 319.0527
1130.770, 258.8672
1131.252, 341.7285
1131.734, 468.5801
1132.216, 496.9922
1132.698, 364.3672
1133.180, 323.9141
1133.662, 401.4473
1134.145, 463.0039
1134.627, 386.5840
1135.109, 266.0957
1135.591, 264.3027
1136.073, 338.7617
1136.555, 382.0117
1137.037, 330.9766
1137.519, 296.1719
1138.001, 288.7422
1138.484, 288.9395
1138.966, 273.3633
1139.448, 250.4766
1139.930, 241.3027
1140.412, 246.1504
1140.894, 256.6484
1141.376, 274.2305
1141.858, 292.0684
1142.341, 314.6523
1142.823, 330.1875
1143.305, 299.3438
1143.787, 239.4922
1144.269, 237.7852
1144.751, 314.4707
1145.233, 384.8555
1145.715, 407.9863
1146.198, 402.0879
1146.680, 368.9277
1147.162, 318.5742
1147.644, 300.3125
1148.126, 313.0918
1148.608, 335.8613
1149.090, 364.9531
1149.572, 392.5840
1150.054, 420.1582
1150.536, 439.6426
1151.019, 440.1211
1151.501, 426.0156
1151.983, 403.2207
1152.465, 376.2227
1152.947, 351.4922
1153.429, 315.4805
1153.911, 289.0293
1154.393, 302.7891
1154.876, 344.5547
1155.358, 393.6465
1155.840, 466.6895
1156.322, 485.0469
1156.804, 435.8750
1157.286, 366.7871
1157.768, 294.9863
1158.250, 240.2539
1158.733, 245.5684
1159.215, 292.2793
1159.697, 306.0391
1160.179, 251.6426
1160.661, 218.0039
1161.143, 217.5625
1161.625, 233.6172
1162.107, 269.7559
1162.589, 298.5234
1163.072, 252.2891
1163.554, 133.7090
1164.036, 64.42383
1164.518, 110.5059
1165.000, 148.5176
1165.482, 149.9297
1165.964, 128.5449
1166.446, 88.29492
1166.928, 49.40234
1167.411, 70.86914
1167.893, 176.5605
1168.375, 244.9668
1168.857, 212.9395
1169.339, 163.9023
1169.821, 121.3750
1170.303, 89.19727
1170.785, 94.21680
1171.268, 119.8457
1171.750, 105.6582
1172.232, 8.345703
1172.714, 66.72070
1173.196, 57.52930
1173.678, 30.94336
1174.160, 28.08398
1174.642, 42.58594
1175.125, 29.66797
1175.607, 6.375000
1176.089, 41.61523
1176.571, 74.64062
1177.053, 91.68555
1177.535, 72.67383
1178.017, 45.02930
1178.499, 40.12305
1178.981, 57.25000
1179.464, 21.56641
1179.946, 62.38281
1180.428, 110.6758
1180.910, 27.47070
1181.392, 58.38281
1181.874, 60.30859
1182.356, 30.88086
1182.838, 61.78516
1183.320, 156.9902
1183.803, 189.8906
1184.285, 148.9082
1184.767, 105.5996
1185.249, 106.5742
1185.731, 130.4395
1186.213, 187.1895
1186.695, 251.3379
1187.177, 245.1719
1187.660, 162.3203
1188.142, 103.3203
1188.624, 83.51367
1189.106, 99.74023
1189.588, 191.1719
1190.070, 282.9746
1190.552, 305.2168
1191.034, 265.9336
1191.516, 242.5742
1191.999, 236.8359
1192.481, 227.3789
1192.963, 204.3398
1193.445, 192.2363
1193.927, 236.0586
1194.409, 289.3008
1194.891, 301.1953
1195.373, 267.7188
1195.855, 235.6797
1196.338, 203.5859
1196.820, 185.8984
1197.302, 194.1152
1197.784, 207.0293
1198.266, 198.3379
1198.748, 182.2129
1199.230, 178.1895
1199.712, 191.3027
1200.195, 193.0625
1200.677, 180.7539
1201.159, 177.0430
1201.641, 203.9141
1202.123, 233.0117
1202.605, 220.1230
1203.087, 191.3457
1203.569, 195.7227
1204.052, 272.7383
1204.534, 267.4512
1205.016, 166.2246
1205.498, 64.34375
1205.980, 37.41211
1206.462, 36.41797
1206.944, 9.800781
1207.426, 72.06836
1207.908, 73.33008
1208.391, 34.48828
1208.873, 72.35156
1209.355, 22.79102
1209.837, 40.82031
1210.319, 72.76953
1210.801, 71.88477
1211.283, 22.23242
1211.765, 63.18945
1212.247, 141.8477
1212.730, 221.5625
1213.212, 252.6309
1213.694, 220.7090
1214.176, 183.0820
1214.658, 198.9121
1215.140, 236.9395
1215.622, 265.7070
1216.104, 283.8086
1216.587, 294.7520
1217.069, 297.3691
1217.551, 296.0098
1218.033, 287.4336
1218.515, 292.1895
1218.997, 351.0410
1219.479, 423.7871
1219.961, 466.4941
1220.443, 475.5762
1220.926, 467.6484
1221.408, 431.1973
1221.890, 434.1953
1222.372, 504.4102
1222.854, 578.5391
1223.336, 579.8184
1223.818, 543.4004
1224.300, 498.0312
1224.782, 447.5391
1225.265, 441.5996
1225.747, 490.7461
1226.229, 534.6543
1226.711, 556.8730
1227.193, 560.9668
1227.675, 531.8613
1228.157, 498.3594
1228.639, 498.0742
1229.122, 538.4082
1229.604, 577.5840
1230.086, 615.0781
1230.568, 643.6895
1231.050, 675.5371
1231.532, 686.2852
1232.014, 606.0469
1232.496, 506.9551
1232.979, 496.5410
1233.461, 598.8398
1233.943, 621.8965
1234.425, 554.5312
1234.907, 511.9160
1235.389, 570.1699
1235.871, 640.1445
1236.353, 619.5684
1236.835, 566.6719
1237.318, 561.9043
1237.800, 613.3398
1238.282, 629.9219
1238.764, 618.0723
1239.246, 620.5332
1239.728, 686.0078
1240.210, 744.6621
1240.692, 732.4707
1241.175, 681.8789
1241.657, 626.2852
1242.139, 556.5195
1242.621, 567.4688
1243.103, 660.3809
1243.585, 733.4238
1244.067, 690.9180
1244.549, 644.7129
1245.031, 696.1504
1245.514, 775.5391
1245.996, 780.2988
1246.478, 702.6328
1246.960, 656.4590
1247.442, 643.7266
1247.924, 643.3945
1248.406, 642.5898
1248.888, 650.1016
1249.370, 682.7852
1249.853, 719.5195
1250.335, 730.6328
1250.817, 717.0840
1251.299, 707.9805
1251.781, 704.6152
1252.263, 706.4902
1252.745, 733.4414
1253.227, 741.0996
1253.710, 693.2773
1254.192, 630.2266
1254.674, 607.3379
1255.156, 618.1797
1255.638, 610.2676
1256.120, 583.6406
1256.602, 577.7930
1257.084, 650.6934
1257.567, 700.0566
1258.049, 684.3008
1258.531, 640.4531
1259.013, 630.8984
1259.495, 629.9141
1259.977, 566.8887
1260.459, 430.2793
1260.941, 371.7676
1261.423, 623.5449
1261.906, 773.4395
1262.388, 692.3496
1262.870, 525.8223
1263.352, 478.6934
1263.834, 510.6738
1264.316, 543.8496
1264.798, 567.9922
1265.280, 561.5000
1265.762, 481.8691
1266.245, 432.7051
1266.727, 441.6934
1267.209, 465.4062
1267.691, 434.6289
1268.173, 382.6445
1268.655, 374.7598
1269.137, 412.1836
1269.619, 408.4512
1270.102, 327.8730
1270.584, 282.9629
1271.066, 303.4473
1271.548, 345.9121
1272.030, 352.0391
1272.512, 350.8281
1272.994, 387.3223
1273.476, 459.0957
1273.958, 487.6582
1274.441, 463.5801
1274.923, 429.0430
1275.405, 387.6289
1275.887, 363.5273
1276.369, 402.4043
1276.851, 454.6602
1277.333, 479.4883
1277.815, 473.6289
1278.297, 425.2090
1278.780, 331.1250
1279.262, 266.7812
1279.744, 249.7441
1280.226, 266.4844
1280.708, 359.6895
1281.190, 431.8125
1281.672, 387.3086
1282.154, 269.3496
1282.637, 239.3262
1283.119, 287.0645
1283.601, 310.5605
1284.083, 282.4414
1284.565, 273.0195
1285.047, 373.8242
1285.529, 447.0156
1286.011, 414.9023
1286.494, 318.2188
1286.976, 265.2441
1287.458, 247.2520
1287.940, 239.7090
1288.422, 239.7012
1288.904, 231.9180
1289.386, 203.3164
1289.868, 174.4336
1290.350, 147.5898
1290.833, 130.7207
1291.315, 157.2363
1291.797, 200.3340
1292.279, 201.4727
1292.761, 143.8047
1293.243, 102.0840
1293.725, 91.24414
1294.207, 79.44336
1294.689, 55.24414
1295.172, 27.27539
1295.654, 12.45508
1296.136, 36.79102
1296.618, 12.40039
1297.100, 153.0098
1297.582, 179.7500
1298.064, 70.43945
1298.546, 6.804688
1299.029, 7.169922
1299.511, 48.98828
1299.993, 52.58398
1300.475, 50.99219
1300.957, 89.56641
1301.439, 157.5469
1301.921, 173.8477
1302.403, 140.0566
1302.885, 97.17773
1303.368, 39.84570
1303.850, 9.968750
1304.332, 25.61133
1304.814, 61.20508
1305.296, 85.93164
1305.778, 100.1484
1306.260, 98.67969
1306.742, 84.16797
1307.224, 77.94922
1307.707, 71.20703
1308.189, 85.49414
1308.671, 79.49023
1309.153, 58.42383
1309.635, 29.51953
1310.117, 0.1230470
1310.599, 0.0000000E+00
##END=



