##NAMES=Hydroxyapophyllite-(K)
##RRUFFID=R050169
##IDEAL CHEMISTRY=KCa_4_Si_8_O_20_(OH)&#183;8H_2_O
##LOCALITY=Christmas mine, Christmas, Gila County, Arizona, USA
##OWNER=RRUFF
##SOURCE=Marcus Origlieri
##DESCRIPTION=Colorless prismatic crystals associated with kinoite, R050168
##STATUS=The identification of this mineral is confirmed by single-crystal X-ray diffraction and chemical analysis.
##URL=rruff.info/R050169
##MEASURED CHEMISTRY=K_1.00_Ca_4.00_Si_8.00_O_20_((OH)_0.98_F_0.02_)_Σ=1_·8H_2_O
129.6975, 0.0000000E+00
130.1796, 5.887939
130.6617, 1.897583
131.1439, 2.997253
131.6260, 0.7795410
132.1081, 7.239136
132.5902, 15.55112
133.0723, 23.26187
133.5544, 31.17047
134.0366, 39.05194
134.5187, 46.88510
135.0008, 54.42319
135.4829, 61.15143
135.9650, 67.18185
136.4471, 76.89981
136.9293, 93.29593
137.4114, 109.7955
137.8935, 122.8028
138.3756, 134.1017
138.8577, 149.3549
139.3398, 174.0052
139.8220, 208.2598
140.3041, 227.8172
140.7862, 227.6676
141.2683, 221.4609
141.7504, 211.7755
142.2325, 200.2757
142.7147, 190.6630
143.1968, 186.2887
143.6789, 187.2669
144.1610, 184.8223
144.6431, 176.5146
145.1252, 167.2931
145.6074, 158.8316
146.0895, 151.5959
146.5716, 147.0481
147.0537, 147.0138
147.5358, 151.6088
148.0179, 154.3590
148.5001, 153.3702
148.9822, 151.9538
149.4643, 152.9227
149.9464, 156.3252
150.4285, 159.5380
150.9106, 160.1611
151.3928, 158.4230
151.8749, 157.7496
152.3570, 159.5539
152.8391, 161.7519
153.3212, 161.5399
153.8033, 158.5967
154.2855, 157.0909
154.7676, 161.1357
155.2497, 169.7054
155.7318, 178.2568
156.2139, 185.3720
156.6960, 192.4948
157.1782, 201.1362
157.6603, 211.3646
158.1424, 223.1385
158.6245, 235.0340
159.1066, 248.1887
159.5887, 266.5566
160.0709, 289.8019
160.5530, 319.3013
161.0351, 357.9170
161.5172, 406.7505
161.9993, 460.1176
162.4814, 517.4860
162.9636, 576.2313
163.4457, 632.3693
163.9278, 687.4576
164.4099, 737.9252
164.8920, 778.2394
165.3741, 810.0535
165.8563, 826.2075
166.3384, 822.3862
166.8205, 801.0235
167.3026, 762.5554
167.7847, 698.4836
168.2668, 619.9849
168.7490, 550.6491
169.2311, 491.3815
169.7132, 439.1667
170.1953, 391.7480
170.6774, 349.4802
171.1595, 313.6921
171.6417, 285.6509
172.1238, 264.2074
172.6059, 246.7093
173.0880, 233.4905
173.5701, 223.9490
174.0522, 218.7468
174.5344, 216.2685
175.0165, 214.6708
175.4986, 214.0128
175.9807, 213.0648
176.4628, 207.5952
176.9449, 193.8998
177.4271, 182.5771
177.9092, 177.1171
178.3913, 176.1966
178.8734, 178.1963
179.3555, 182.4448
179.8376, 189.0253
180.3197, 198.4903
180.8019, 212.2759
181.2840, 226.5753
181.7661, 241.4073
182.2482, 255.6429
182.7303, 267.0976
183.2124, 273.8109
183.6946, 278.5494
184.1767, 290.0665
184.6588, 313.8252
185.1409, 334.8162
185.6230, 351.4108
186.1051, 363.4536
186.5873, 371.8921
187.0694, 376.1023
187.5515, 374.8483
188.0336, 378.0873
188.5157, 388.3851
188.9978, 399.6557
189.4800, 410.0486
189.9621, 420.6021
190.4442, 432.4935
190.9263, 446.2498
191.4084, 462.0232
191.8905, 480.2792
192.3727, 501.4593
192.8548, 524.2584
193.3369, 547.6613
193.8190, 572.2966
194.3011, 600.1974
194.7832, 632.3139
195.2654, 665.3984
195.7475, 690.9034
196.2296, 706.2707
196.7117, 719.0322
197.1938, 733.1981
197.6759, 743.7441
198.1581, 746.0310
198.6402, 738.5269
199.1223, 723.0894
199.6044, 701.9090
200.0865, 669.4181
200.5686, 642.3975
201.0508, 626.7290
201.5329, 613.2707
202.0150, 594.6597
202.4971, 568.9500
202.9792, 540.5504
203.4613, 516.9769
203.9435, 502.0515
204.4256, 483.3840
204.9077, 455.8634
205.3898, 428.0738
205.8719, 405.8562
206.3540, 390.3133
206.8362, 378.5397
207.3183, 366.8184
207.8004, 355.5198
208.2825, 343.5023
208.7646, 327.4533
209.2467, 313.2288
209.7289, 305.9572
210.2110, 305.2917
210.6931, 305.6137
211.1752, 299.8000
211.6573, 285.3005
212.1395, 274.1867
212.6216, 269.7675
213.1037, 265.7156
213.5858, 258.7591
214.0679, 249.0819
214.5500, 238.8690
215.0322, 229.8126
215.5143, 221.5573
215.9964, 217.2006
216.4785, 218.0548
216.9606, 221.4904
217.4427, 227.4351
217.9249, 235.3106
218.4070, 244.1222
218.8891, 253.1805
219.3712, 262.5024
219.8533, 271.4232
220.3354, 278.1052
220.8176, 286.2165
221.2997, 297.9939
221.7818, 311.9896
222.2639, 325.1775
222.7460, 335.1127
223.2281, 342.3262
223.7103, 351.6862
224.1924, 365.7508
224.6745, 379.3565
225.1566, 391.4135
225.6387, 402.3737
226.1208, 413.6874
226.6030, 426.5885
227.0851, 439.4314
227.5672, 445.1912
228.0493, 440.4337
228.5314, 432.3637
229.0135, 421.5697
229.4957, 408.6714
229.9778, 394.2546
230.4599, 378.5809
230.9420, 361.5874
231.4241, 343.0791
231.9062, 323.8073
232.3884, 301.4207
232.8705, 273.8636
233.3526, 244.6362
233.8347, 216.2934
234.3168, 189.8107
234.7989, 164.5247
235.2811, 138.2220
235.7632, 105.9911
236.2453, 84.93372
236.7274, 86.49817
237.2095, 91.11639
237.6916, 84.52158
238.1738, 64.59991
238.6559, 40.76709
239.1380, 25.05530
239.6201, 17.96052
240.1022, 18.48345
240.5843, 17.93777
241.0665, 16.38803
241.5486, 10.41219
242.0307, 10.47088
242.5128, 8.306007
242.9949, 6.183325
243.4770, 7.488980
243.9592, 2.872346
244.4413, 4.404006
244.9234, 3.676053
245.4055, 4.184988
245.8876, 2.455772
246.3697, 1.599875
246.8519, 3.260988
247.3340, 3.744532
247.8161, 2.297968
248.2982, 3.711133
248.7803, 0.4024109
249.2624, 1.498317
249.7446, 4.573806
250.2267, 3.942146
250.7088, 6.094152
251.1909, 7.378019
251.6730, 4.223616
252.1551, 9.168738
252.6373, 10.81057
253.1194, 9.056386
253.6015, 14.14599
254.0836, 13.15726
254.5657, 14.52683
255.0478, 17.70559
255.5300, 27.36127
256.0121, 33.60526
256.4942, 38.64255
256.9763, 42.20984
257.4584, 45.29593
257.9406, 48.53635
258.4227, 52.05276
258.9048, 55.83258
259.3869, 59.91412
259.8690, 64.31210
260.3511, 68.68555
260.8333, 71.07736
261.3154, 75.36832
261.7975, 85.93219
262.2796, 102.3413
262.7617, 117.4563
263.2438, 125.5724
263.7260, 127.7477
264.2081, 129.5815
264.6902, 129.9920
265.1723, 132.8548
265.6544, 143.1128
266.1365, 158.4288
266.6187, 170.7983
267.1008, 175.5606
267.5829, 174.9970
268.0650, 172.2273
268.5471, 165.3562
269.0292, 162.7230
269.5114, 177.4894
269.9935, 199.9174
270.4756, 212.8349
270.9577, 207.7372
271.4398, 194.6733
271.9219, 183.0903
272.4041, 172.9293
272.8862, 166.3182
273.3683, 167.5767
273.8504, 171.5222
274.3325, 167.6540
274.8146, 150.5267
275.2968, 134.5934
275.7789, 130.9066
276.2610, 136.9909
276.7431, 142.6068
277.2252, 143.8794
277.7073, 143.5002
278.1895, 146.8168
278.6716, 155.1876
279.1537, 160.4837
279.6358, 156.7465
280.1179, 148.6929
280.6000, 144.6622
281.0822, 146.7340
281.5643, 151.3134
282.0464, 154.3356
282.5285, 155.6145
283.0106, 157.5392
283.4927, 159.6822
283.9749, 163.0233
284.4570, 169.7289
284.9391, 179.5370
285.4212, 188.0377
285.9033, 191.0121
286.3854, 188.5805
286.8676, 189.4904
287.3497, 196.4561
287.8318, 203.8001
288.3139, 205.9603
288.7960, 205.9809
289.2781, 213.3571
289.7603, 234.6706
290.2424, 265.1168
290.7245, 283.8582
291.2066, 277.2153
291.6887, 276.6197
292.1708, 290.5214
292.6530, 311.6825
293.1351, 331.2909
293.6172, 346.2372
294.0993, 358.9181
294.5814, 373.6589
295.0635, 393.7225
295.5457, 409.5258
296.0278, 416.6559
296.5099, 422.8303
296.9920, 434.5000
297.4741, 451.7360
297.9562, 469.1537
298.4384, 480.7513
298.9205, 484.8151
299.4026, 491.0137
299.8847, 503.3273
300.3668, 514.3970
300.8489, 520.7064
301.3311, 523.7650
301.8131, 526.5413
302.2953, 529.8491
302.7774, 534.6798
303.2595, 546.5550
303.7416, 573.5178
304.2237, 596.0808
304.7058, 605.8359
305.1880, 610.8587
305.6701, 621.5294
306.1522, 641.8885
306.6343, 664.2910
307.1164, 674.4686
307.5985, 667.7523
308.0807, 666.5311
308.5628, 678.3129
309.0449, 694.2158
309.5270, 709.9776
310.0091, 724.9991
310.4912, 739.4498
310.9734, 754.6868
311.4555, 770.3181
311.9376, 783.3544
312.4197, 794.9822
312.9018, 802.6641
313.3839, 801.9977
313.8661, 796.3873
314.3482, 794.8530
314.8303, 805.0788
315.3124, 820.2707
315.7945, 827.5002
316.2766, 825.2756
316.7588, 823.9969
317.2409, 832.7878
317.7230, 844.7684
318.2051, 848.0919
318.6872, 838.0929
319.1693, 824.9984
319.6515, 818.0101
320.1336, 815.0250
320.6157, 805.1001
321.0978, 781.6355
321.5799, 754.3525
322.0620, 741.1694
322.5442, 745.1403
323.0263, 741.9376
323.5084, 717.9782
323.9905, 685.8056
324.4726, 661.5912
324.9547, 647.9610
325.4369, 639.1403
325.9190, 631.4866
326.4011, 625.3040
326.8832, 609.4857
327.3653, 574.8265
327.8474, 539.2956
328.3296, 511.3430
328.8117, 490.7860
329.2938, 475.9645
329.7759, 466.4603
330.2580, 460.7592
330.7401, 452.2955
331.2223, 437.5051
331.7044, 424.3046
332.1865, 415.9214
332.6686, 408.3854
333.1507, 396.7206
333.6328, 379.6681
334.1150, 360.7419
334.5971, 345.1537
335.0792, 334.4059
335.5613, 323.1790
336.0434, 307.9012
336.5255, 295.3205
337.0077, 291.3542
337.4898, 293.8023
337.9719, 295.2464
338.4540, 289.6928
338.9361, 277.8639
339.4182, 266.1474
339.9004, 254.5194
340.3825, 243.1826
340.8646, 233.6010
341.3467, 223.7718
341.8288, 210.7479
342.3109, 192.9811
342.7931, 173.5876
343.2752, 156.1430
343.7573, 140.1957
344.2394, 129.7000
344.7215, 132.3070
345.2036, 135.3086
345.6858, 127.0421
346.1679, 107.2457
346.6500, 87.73169
347.1321, 75.46674
347.6142, 69.16434
348.0963, 66.20267
348.5785, 67.57214
349.0606, 68.38876
349.5427, 63.26886
350.0248, 54.30322
350.5069, 47.76154
350.9890, 48.30817
351.4712, 48.81506
351.9533, 41.09879
352.4354, 27.11026
352.9175, 17.70795
353.3996, 19.22266
353.8817, 27.06433
354.3639, 28.89117
354.8460, 22.07495
355.3281, 16.24374
355.8102, 13.64972
356.2923, 13.09842
356.7744, 14.47986
357.2566, 17.44348
357.7387, 18.51816
358.2208, 12.96283
358.7029, 1.645508
359.1850, 9.030212
359.6671, 2.387665
360.1493, 3.619843
360.6314, 0.8277590
361.1135, 7.700653
361.5956, 14.32990
362.0777, 14.43008
362.5598, 9.860504
363.0420, 7.344635
363.5241, 7.363312
364.0062, 8.892639
364.4883, 14.25711
364.9704, 19.38980
365.4525, 20.61746
365.9347, 17.29047
366.4168, 11.86053
366.8989, 6.654419
367.3810, 1.600800
367.8631, 2.697632
368.3452, 5.930786
368.8274, 8.718018
369.3095, 11.44659
369.7916, 14.03610
370.2737, 13.65936
370.7558, 18.98685
371.2379, 22.96960
371.7201, 25.68002
372.2022, 23.32352
372.6843, 27.49646
373.1664, 29.04495
373.6485, 30.48044
374.1306, 35.55719
374.6128, 33.90976
375.0949, 38.91809
375.5770, 38.53635
376.0591, 35.58154
376.5412, 32.64560
377.0233, 30.32077
377.5055, 28.54489
377.9876, 27.50992
378.4697, 27.33047
378.9518, 26.14517
379.4339, 21.48413
379.9160, 18.01614
380.3982, 18.90839
380.8803, 23.36905
381.3624, 29.25836
381.8445, 35.64844
382.3266, 41.85852
382.8087, 45.81985
383.2909, 41.24887
383.7730, 42.92776
384.2551, 56.80414
384.7372, 73.26978
385.2193, 84.03964
385.7014, 88.15390
386.1836, 90.76172
386.6657, 97.30566
387.1478, 107.9867
387.6299, 118.3073
388.1120, 129.6290
388.5941, 139.0103
389.0763, 142.3655
389.5584, 143.7707
390.0405, 150.1268
390.5226, 165.4294
391.0047, 185.4064
391.4868, 202.5605
391.9690, 216.1343
392.4511, 229.7994
392.9332, 243.8261
393.4153, 259.2866
393.8974, 277.1510
394.3795, 297.2016
394.8617, 316.9131
395.3438, 334.9894
395.8259, 351.9144
396.3080, 368.6109
396.7901, 385.3962
397.2722, 403.2158
397.7544, 423.9477
398.2365, 445.0164
398.7186, 458.2230
399.2007, 456.5393
399.6828, 456.6589
400.1649, 467.0531
400.6471, 482.2749
401.1292, 494.0114
401.6113, 499.4568
402.0934, 500.0770
402.5755, 498.2826
403.0576, 494.1211
403.5398, 488.5377
404.0219, 480.1194
404.5040, 471.2139
404.9861, 463.4683
405.4682, 456.2915
405.9503, 447.3695
406.4325, 434.6178
406.9146, 420.6021
407.3967, 415.8092
407.8788, 428.4083
408.3609, 433.2722
408.8430, 417.9054
409.3252, 398.6098
409.8073, 389.0709
410.2894, 391.0121
410.7715, 394.4542
411.2536, 388.9993
411.7357, 377.1649
412.2179, 372.5177
412.7000, 377.8160
413.1821, 385.6856
413.6642, 389.0060
414.1463, 391.4993
414.6284, 401.3434
415.1106, 423.6581
415.5927, 449.4064
416.0748, 473.0254
416.5569, 494.3961
417.0390, 513.6139
417.5211, 531.0776
418.0033, 548.8540
418.4854, 569.8064
418.9675, 594.2495
419.4496, 619.3066
419.9317, 644.5878
420.4138, 671.5672
420.8960, 698.8803
421.3781, 728.1161
421.8602, 764.8398
422.3423, 813.5886
422.8244, 870.6264
423.3065, 919.6036
423.7887, 954.9053
424.2708, 991.6868
424.7529, 1036.710
425.2350, 1080.336
425.7171, 1112.336
426.1992, 1132.437
426.6814, 1150.784
427.1635, 1178.979
427.6456, 1215.856
428.1277, 1246.053
428.6098, 1273.034
429.0919, 1286.409
429.5741, 1279.146
430.0562, 1255.888
430.5383, 1221.838
431.0204, 1177.318
431.5025, 1124.063
431.9846, 1061.839
432.4668, 991.7760
432.9489, 916.2506
433.4310, 834.1077
433.9131, 752.6353
434.3952, 680.4279
434.8773, 618.6267
435.3595, 559.7276
435.8416, 504.1906
436.3237, 451.0032
436.8058, 397.7778
437.2879, 346.1987
437.7701, 299.7920
438.2522, 260.4406
438.7343, 227.6137
439.2164, 200.3537
439.6985, 181.4866
440.1806, 163.4523
440.6628, 146.1907
441.1449, 129.3284
441.6270, 112.6962
442.1091, 96.24719
442.5912, 79.67157
443.0733, 62.17657
443.5555, 44.68463
444.0376, 23.70842
444.5197, 29.38276
445.0018, 31.34956
445.4839, 29.81546
445.9660, 13.87025
446.4482, 16.85806
446.9303, 12.45737
447.4124, 7.889463
447.8945, 13.94797
448.3766, 0.8282447
448.8587, 7.003814
449.3409, 5.675012
449.8230, 7.987675
450.3051, 2.864586
450.7872, 0.2237277
451.2693, 5.304410
451.7514, 6.329750
452.2336, 0.9011771
452.7157, 4.286664
453.1978, -7.680464
453.6799, -5.909360
454.1620, 1.869727
454.6441, -2.469005
455.1263, 1.763670
455.6084, 2.927605
456.0905, -10.35699
456.5726, 1.874080
457.0547, 3.273466
457.5368, -6.452666
458.0190, 5.334393
458.5011, -2.554976
458.9832, -3.228829
459.4653, 1.562619
459.9474, 0.9461635
460.4295, 9.221040
460.9117, 9.208961
461.3938, 8.585102
461.8759, 11.38950
462.3580, 5.022722
462.8401, 16.07511
463.3222, 15.46733
463.8044, 20.86833
464.2865, 27.74014
464.7686, 24.57198
465.2507, 32.32490
465.7328, 23.50342
466.2149, 28.81071
466.6971, 46.02155
467.1792, 62.98132
467.6613, 88.88306
468.1434, 111.6921
468.6255, 127.1539
469.1076, 143.2963
469.5898, 164.4088
470.0719, 190.5168
470.5540, 220.3289
471.0361, 253.7498
471.5182, 288.8230
472.0003, 319.3539
472.4825, 340.9773
472.9646, 369.4578
473.4467, 412.1031
473.9288, 459.9539
474.4109, 506.3002
474.8930, 551.5122
475.3752, 603.0751
475.8573, 667.1459
476.3394, 739.4230
476.8215, 814.4821
477.3036, 892.0679
477.7857, 967.8414
478.2679, 1036.435
478.7500, 1104.309
479.2321, 1190.651
479.7142, 1304.698
480.1963, 1409.575
480.6784, 1495.016
481.1606, 1570.472
481.6427, 1647.137
482.1248, 1723.804
482.6069, 1790.437
483.0890, 1841.659
483.5711, 1874.901
484.0533, 1876.432
484.5354, 1839.021
485.0175, 1779.019
485.4996, 1690.611
485.9817, 1589.616
486.4638, 1487.240
486.9460, 1385.111
487.4281, 1282.065
487.9102, 1173.206
488.3923, 1062.781
488.8744, 963.9177
489.3565, 877.5505
489.8387, 798.7946
490.3208, 726.6556
490.8029, 660.7123
491.2850, 598.7084
491.7671, 539.1688
492.2492, 487.2711
492.7314, 447.8159
493.2135, 415.6929
493.6956, 385.4200
494.1777, 356.5410
494.6598, 331.1575
495.1419, 311.1495
495.6241, 295.9005
496.1062, 280.8995
496.5883, 265.1002
497.0704, 251.2384
497.5525, 241.2736
498.0346, 232.0334
498.5168, 220.9610
498.9989, 207.7949
499.4810, 193.8660
499.9631, 179.6193
500.4452, 165.4851
500.9273, 153.4213
501.4095, 143.6633
501.8916, 134.9072
502.3737, 126.2383
502.8558, 118.4786
503.3379, 113.3390
503.8200, 111.9116
504.3022, 108.9491
504.7843, 100.0352
505.2664, 89.97949
505.7485, 84.83618
506.2306, 84.12146
506.7127, 83.43365
507.1949, 79.76965
507.6770, 74.40674
508.1591, 72.55554
508.6412, 79.15741
509.1233, 81.92731
509.6054, 76.46143
510.0876, 70.45685
510.5697, 69.55945
511.0518, 73.78870
511.5339, 79.74475
512.0161, 85.58740
512.4982, 90.73315
512.9803, 93.26355
513.4624, 92.91083
513.9445, 95.46887
514.4266, 102.8239
514.9088, 112.9703
515.3909, 123.3402
515.8730, 134.1660
516.3551, 146.5724
516.8372, 159.8329
517.3193, 175.8247
517.8015, 199.0627
518.2836, 226.6982
518.7657, 248.7757
519.2478, 259.4474
519.7299, 264.6808
520.2120, 278.4495
520.6942, 304.1015
521.1763, 332.3796
521.6584, 366.3180
522.1405, 399.5476
522.6226, 426.7856
523.1047, 450.5695
523.5869, 477.2188
524.0690, 510.6374
524.5511, 547.6245
525.0332, 583.4390
525.5153, 618.0840
525.9974, 651.4827
526.4796, 681.8798
526.9617, 713.9286
527.4438, 754.6409
527.9259, 802.8343
528.4080, 846.9982
528.8901, 881.5389
529.3723, 915.6511
529.8544, 959.5817
530.3365, 1006.209
530.8186, 1039.419
531.3007, 1054.167
531.7828, 1061.854
532.2650, 1078.899
532.7471, 1107.995
533.2292, 1129.954
533.7113, 1138.455
534.1934, 1146.915
534.6755, 1162.832
535.1577, 1179.801
535.6398, 1189.109
536.1219, 1188.115
536.6040, 1180.994
537.0861, 1170.438
537.5682, 1156.863
538.0504, 1142.175
538.5325, 1127.032
539.0146, 1108.124
539.4967, 1083.239
539.9788, 1052.662
540.4609, 1018.721
540.9431, 973.7283
541.4252, 935.7836
541.9073, 915.0387
542.3894, 898.7877
542.8715, 872.1094
543.3536, 835.7278
543.8358, 803.9501
544.3179, 789.4531
544.8000, 787.4260
545.2821, 776.4418
545.7642, 753.7299
546.2463, 729.6262
546.7285, 702.6837
547.2106, 678.5156
547.6927, 663.2719
548.1748, 656.2711
548.6569, 647.8519
549.1390, 628.4814
549.6211, 609.4737
550.1032, 605.5456
550.5853, 613.8300
551.0674, 621.6505
551.5496, 624.2352
552.0317, 622.6817
552.5138, 618.0458
552.9959, 607.5076
553.4780, 603.6027
553.9601, 609.5135
554.4423, 617.6117
554.9244, 627.5175
555.4065, 636.7627
555.8886, 639.9634
556.3707, 635.3229
556.8528, 632.5503
557.3350, 645.9890
557.8171, 673.6886
558.2992, 697.2347
558.7813, 713.8450
559.2634, 729.7239
559.7455, 747.4579
560.2277, 768.0192
560.7098, 793.0845
561.1919, 822.1453
561.6740, 857.3365
562.1561, 902.1667
562.6382, 951.0497
563.1204, 998.6898
563.6025, 1044.670
564.0846, 1091.463
564.5667, 1141.457
565.0488, 1193.569
565.5309, 1243.012
566.0131, 1284.880
566.4952, 1335.515
566.9773, 1402.425
567.4594, 1476.763
567.9415, 1556.809
568.4236, 1639.952
568.9058, 1717.557
569.3879, 1777.666
569.8700, 1838.194
570.3521, 1923.071
570.8342, 2025.889
571.3163, 2123.357
571.7985, 2207.832
572.2806, 2287.864
572.7627, 2372.026
573.2448, 2459.690
573.7269, 2557.159
574.2090, 2682.837
574.6912, 2798.744
575.1733, 2883.419
575.6554, 2958.265
576.1375, 3053.551
576.6196, 3174.433
577.1017, 3291.409
577.5839, 3378.728
578.0660, 3440.880
578.5481, 3492.348
579.0302, 3533.302
579.5123, 3563.531
579.9944, 3583.308
580.4766, 3591.773
580.9587, 3588.491
581.4408, 3578.296
581.9229, 3542.414
582.4050, 3461.114
582.8871, 3369.077
583.3693, 3294.345
583.8514, 3226.987
584.3335, 3138.728
584.8156, 3017.086
585.2977, 2878.623
585.7798, 2748.812
586.2620, 2629.155
586.7441, 2503.109
587.2262, 2363.363
587.7083, 2225.933
588.1904, 2105.497
588.6725, 1991.545
589.1547, 1864.222
589.6368, 1711.084
590.1189, 1569.099
590.6010, 1460.068
591.0831, 1369.682
591.5652, 1281.100
592.0474, 1192.956
592.5295, 1111.687
593.0116, 1042.288
593.4937, 981.8109
593.9758, 920.1064
594.4579, 856.1722
594.9401, 794.1348
595.4222, 733.1492
595.9043, 675.7607
596.3864, 624.0371
596.8685, 577.2044
597.3506, 533.2672
597.8328, 491.1738
598.3149, 452.7968
598.7970, 420.7131
599.2791, 393.4591
599.7612, 367.2388
600.2433, 341.2076
600.7255, 316.1006
601.2076, 292.1437
601.6897, 269.6450
602.1718, 251.1581
602.6539, 240.2802
603.1360, 228.6475
603.6182, 214.0814
604.1003, 199.7834
604.5824, 189.1463
605.0645, 181.2754
605.5466, 171.9958
606.0287, 158.5527
606.5109, 142.7885
606.9930, 126.6204
607.4751, 110.2198
607.9572, 95.40985
608.4393, 82.75781
608.9214, 70.93262
609.4036, 58.10059
609.8857, 44.25079
610.3678, 34.40485
610.8499, 23.27324
611.3320, 30.22588
611.8141, 33.38955
612.2963, 32.97093
612.7784, 18.06103
613.2605, 22.00341
613.7426, 18.47566
614.2247, 14.70004
614.7068, 21.46951
615.1890, 8.979439
615.6711, 15.70431
616.1532, 14.84395
616.6353, 17.54364
617.1174, 12.72682
617.5995, 10.31101
618.0817, 15.53553
618.5638, 16.62415
619.0459, 11.17790
619.5280, 14.46450
620.0101, 2.317623
620.4922, 3.827866
620.9744, 11.26497
621.4565, 6.503507
621.9386, 10.23237
622.4207, 10.81150
622.9028, -3.138849
623.3849, 8.345446
623.8671, 8.917023
624.3492, -1.717848
624.8313, 9.079272
625.3134, 0.1191862
625.7955, -1.706361
626.2776, 1.852323
626.7598, -7.7761784E-02
627.2419, 6.802361
627.7240, 5.314216
628.2061, 3.133727
628.6882, 4.300474
629.1703, -3.785038
629.6525, 5.467901
630.1346, 2.979352
630.6167, 6.418155
631.0988, 11.24743
631.5809, 5.955655
632.0630, 11.50387
632.5452, 0.3971261
633.0273, 3.337634
633.5094, 4.832867
633.9915, 15.32893
634.4736, 4.546298
634.9557, 7.341284
635.4379, 15.95255
635.9200, 16.57121
636.4021, 20.61773
636.8842, 14.75740
637.3663, 18.32143
637.8484, 19.36537
638.3306, 29.38931
638.8127, 32.43236
639.2948, 27.04490
639.7769, 21.75415
640.2590, 32.66233
640.7411, 28.33533
641.2233, 39.81583
641.7054, 49.23163
642.1875, 55.13748
642.6696, 57.90231
643.1517, 62.27277
643.6339, 72.54156
644.1160, 80.96301
644.5981, 82.03360
645.0802, 79.09811
645.5623, 75.67499
646.0444, 73.36777
646.5266, 75.32489
647.0087, 85.55688
647.4908, 102.0542
647.9729, 114.5355
648.4550, 121.9586
648.9371, 127.7665
649.4193, 130.8525
649.9014, 135.4266
650.3835, 147.6183
650.8656, 165.9842
651.3477, 180.0941
651.8298, 185.0734
652.3120, 188.8412
652.7941, 196.6964
653.2762, 205.1783
653.7583, 207.9281
654.2404, 205.0892
654.7225, 204.0730
655.2047, 211.5427
655.6868, 224.4696
656.1689, 232.0658
656.6510, 233.0497
657.1331, 236.5403
657.6152, 243.9398
658.0974, 255.0098
658.5795, 273.7197
659.0616, 297.1055
659.5437, 310.8294
660.0258, 305.0482
660.5079, 300.1105
660.9901, 304.4767
661.4722, 312.1254
661.9543, 317.7116
662.4364, 320.1629
662.9185, 319.6051
663.4006, 315.6869
663.8828, 310.0653
664.3649, 306.3891
664.8470, 304.7504
665.3291, 303.1302
665.8112, 301.8017
666.2933, 298.8010
666.7755, 292.0442
667.2576, 282.4396
667.7397, 274.0315
668.2218, 267.4962
668.7039, 261.2191
669.1860, 256.5267
669.6682, 250.5251
670.1503, 239.7082
670.6324, 225.6416
671.1145, 212.8056
671.5966, 202.8915
672.0787, 194.8331
672.5609, 187.5783
673.0430, 180.5786
673.5251, 170.8606
674.0072, 157.2469
674.4893, 146.0721
674.9714, 142.4166
675.4536, 142.7053
675.9357, 137.3757
676.4178, 121.7102
676.8999, 109.9258
677.3820, 104.8858
677.8641, 101.8471
678.3463, 100.9347
678.8284, 99.54004
679.3105, 92.19086
679.7926, 77.14273
680.2747, 63.64432
680.7568, 63.98318
681.2390, 71.80066
681.7211, 70.29590
682.2032, 59.15979
682.6853, 49.57764
683.1674, 46.85629
683.6495, 47.16974
684.1317, 44.06174
684.6138, 36.43668
685.0959, 32.26889
685.5780, 34.66656
686.0601, 35.34106
686.5422, 30.32651
687.0244, 23.28140
687.5065, 17.37112
687.9886, 13.53250
688.4707, 13.36179
688.9528, 22.33292
689.4349, 31.56387
689.9171, 29.19598
690.3992, 18.68585
690.8813, 10.19348
691.3634, 6.283295
691.8455, 4.373810
692.3276, 2.341125
692.8098, 0.3651730
693.2919, 0.4867550
693.7740, 4.580658
694.2561, 6.470459
694.7382, 2.129303
695.2203, 2.148071
695.7025, 1.181213
696.1846, 3.735596
696.6667, 7.378693
697.1488, 8.351593
697.6309, 7.948975
698.1130, 5.904816
698.5952, 3.413635
699.0773, 1.972748
699.5594, 1.640381
700.0415, 1.523132
700.5236, 0.9752500
701.0057, 0.8153990
701.4879, 3.172882
701.9700, 8.221680
702.4521, 12.55411
702.9342, 16.71613
703.4163, 17.83356
703.8984, 12.46637
704.3806, 3.556610
704.8627, 2.085236
705.3448, 4.438812
705.8269, 3.946228
706.3090, 2.068512
706.7911, 8.182892
707.2733, 12.17426
707.7554, 13.67874
708.2375, 11.02664
708.7196, 4.102142
709.2017, 0.9759520
709.6838, 3.216736
710.1660, 13.25723
710.6481, 20.97565
711.1302, 26.28439
711.6123, 29.96353
712.0944, 32.41812
712.5765, 32.69260
713.0587, 29.13910
713.5408, 21.50177
714.0229, 15.43784
714.5050, 11.23685
714.9871, 8.342773
715.4692, 7.363495
715.9514, 7.078522
716.4335, 6.474915
716.9156, 5.631104
717.3977, 5.330505
717.8798, 6.369049
718.3619, 7.361542
718.8441, 6.776123
719.3262, 5.561218
719.8083, 5.510620
720.2904, 6.704773
720.7725, 8.000061
721.2546, 8.730804
721.7368, 8.632599
722.2189, 6.467651
722.7010, 1.578613
723.1831, 0.6698000
723.6652, 1.024872
724.1473, 3.667725
724.6295, 6.722015
725.1116, 9.141022
725.5937, 8.398651
726.0758, 2.918793
726.5579, 0.1799930
727.0400, 2.906952
727.5222, 6.155945
728.0043, 5.306671
728.4864, 2.428009
728.9685, 1.192871
729.4506, 2.535309
729.9327, 4.521393
730.4149, 5.000000
730.8970, 5.043701
731.3791, 8.171539
731.8612, 13.81723
732.3433, 15.96106
732.8254, 12.39954
733.3076, 7.856720
733.7897, 7.108734
734.2718, 9.915466
734.7539, 13.26541
735.2360, 19.98862
735.7181, 22.45218
736.2003, 15.28201
736.6824, 7.963165
737.1645, 7.200928
737.6466, 10.99219
738.1287, 13.14859
738.6108, 11.32098
739.0930, 9.366821
739.5751, 9.862213
740.0572, 11.11615
740.5393, 10.84885
741.0214, 9.467957
741.5035, 8.994293
741.9857, 10.38434
742.4678, 12.48901
742.9499, 13.63449
743.4320, 13.90591
743.9141, 14.62558
744.3962, 15.92255
744.8784, 17.12109
745.3605, 18.15414
745.8426, 18.54184
746.3247, 17.11047
746.8068, 13.42337
747.2889, 12.88742
747.7711, 19.98593
748.2532, 24.24835
748.7353, 21.28287
749.2174, 15.79630
749.6995, 10.49042
750.1816, 6.584137
750.6638, 6.655487
751.1459, 14.19754
751.6280, 22.32764
752.1101, 23.49081
752.5922, 20.63623
753.0743, 18.66269
753.5565, 18.85223
754.0386, 23.04599
754.5207, 32.62207
755.0028, 42.60831
755.4849, 41.85040
755.9670, 28.18472
756.4492, 22.41434
756.9313, 28.35178
757.4134, 35.26459
757.8955, 39.99570
758.3776, 41.96420
758.8597, 39.19104
759.3419, 31.17682
759.8240, 25.77805
760.3061, 23.72803
760.7882, 24.13638
761.2703, 29.12576
761.7524, 34.70819
762.2346, 36.06201
762.7167, 33.26868
763.1988, 30.82529
763.6809, 31.82132
764.1630, 33.97906
764.6451, 34.30560
765.1273, 33.10550
765.6094, 30.92236
766.0915, 27.96426
766.5736, 25.14639
767.0557, 22.90811
767.5378, 21.87015
768.0200, 22.91864
768.5021, 26.57248
768.9842, 28.19714
769.4663, 26.58298
769.9484, 25.59711
770.4305, 27.20151
770.9127, 29.38245
771.3948, 29.96707
771.8769, 28.76126
772.3590, 28.59860
772.8411, 32.51184
773.3232, 34.29126
773.8054, 28.25421
774.2875, 21.06393
774.7696, 20.02472
775.2517, 25.20255
775.7338, 32.20355
776.2159, 39.59213
776.6981, 45.71063
777.1802, 48.37384
777.6623, 48.45511
778.1444, 47.41904
778.6265, 45.67163
779.1086, 44.42859
779.5908, 44.41534
780.0729, 44.94095
780.5550, 44.04385
781.0371, 41.15704
781.5192, 43.83548
782.0013, 55.55203
782.4835, 63.17679
782.9656, 57.80182
783.4477, 49.58105
783.9298, 52.45779
784.4119, 66.68292
784.8940, 78.92752
785.3762, 89.57428
785.8583, 96.84198
786.3404, 97.63104
786.8225, 96.89169
787.3046, 98.18274
787.7867, 101.9116
788.2689, 107.9713
788.7510, 117.3307
789.2331, 125.7472
789.7152, 128.6954
790.1973, 128.8984
790.6794, 131.1301
791.1616, 135.0045
791.6437, 137.0256
792.1258, 135.7146
792.6079, 133.3314
793.0900, 133.4756
793.5721, 135.5826
794.0543, 134.1647
794.5364, 129.0389
795.0185, 121.1505
795.5006, 109.9453
795.9827, 97.77783
796.4648, 86.47379
796.9470, 76.11203
797.4291, 67.97247
797.9112, 61.78955
798.3933, 58.36292
798.8754, 62.00842
799.3575, 64.17761
799.8397, 58.65643
800.3218, 48.52005
800.8039, 39.36349
801.2860, 32.24564
801.7681, 27.85388
802.2502, 28.54330
802.7324, 30.35175
803.2145, 30.40698
803.6966, 28.63977
804.1787, 25.04132
804.6608, 19.76852
805.1429, 13.40424
805.6251, 5.266876
806.1072, 2.005432
806.5893, 1.833801
807.0714, 4.925568
807.5535, 12.96768
808.0356, 21.67850
808.5178, 27.15268
808.9999, 26.62042
809.4820, 21.58517
809.9641, 14.99753
810.4462, 4.494843
810.9283, 1.821533
811.4105, 15.37708
811.8926, 22.98422
812.3747, 8.799316
812.8568, 10.82910
813.3389, 15.95180
813.8210, 6.459412
814.3032, 0.4604490
814.7853, 0.6597900
815.2674, 3.2561999E-02
815.7495, 0.1682130
816.2316, 0.2586060
816.7137, 2.063446
817.1959, 4.605042
817.6780, 6.121704
818.1601, 5.825500
818.6422, 4.585541
819.1243, 1.957031
819.6064, 0.4783330
820.0886, 3.5767000E-02
820.5707, 3.052795
821.0528, 7.009338
821.5349, 11.24792
822.0170, 14.01718
822.4991, 12.81259
822.9813, 8.869843
823.4634, 7.857697
823.9455, 9.956848
824.4276, 11.06985
824.9097, 10.39249
825.3918, 9.110718
825.8740, 7.634460
826.3561, 5.880646
826.8382, 2.306610
827.3203, 6.751984
827.8024, 9.060257
828.2845, 2.238037
828.7667, 11.89978
829.2488, 13.63089
829.7309, 11.32098
830.2130, 9.165405
830.6951, 7.464142
831.1772, 5.824036
831.6594, 3.102264
832.1415, 1.712616
832.6236, 3.417297
833.1057, 6.448456
833.5878, 9.384064
834.0699, 11.95715
834.5521, 14.22675
835.0342, 16.28616
835.5163, 17.91473
835.9984, 19.59418
836.4805, 21.16522
836.9626, 22.91949
837.4448, 24.29004
837.9269, 21.80777
838.4090, 15.01251
838.8911, 9.545288
839.3732, 12.12854
839.8553, 20.14319
840.3375, 23.62683
840.8196, 22.47772
841.3017, 22.00804
841.7838, 23.14188
842.2659, 25.20480
842.7480, 28.08537
843.2302, 31.16280
843.7123, 33.05626
844.1944, 34.26495
844.6765, 32.33807
845.1586, 23.14514
845.6407, 16.99025
846.1229, 20.49689
846.6050, 26.42879
847.0871, 27.54530
847.5692, 24.10741
848.0513, 21.19832
848.5334, 19.34633
849.0156, 18.30627
849.4977, 17.44238
849.9798, 17.88766
850.4619, 22.40610
850.9440, 28.55412
851.4261, 30.15573
851.9083, 24.92397
852.3904, 21.52437
852.8725, 29.85196
853.3546, 39.29733
853.8367, 37.06473
854.3188, 28.21471
854.8010, 23.85666
855.2831, 25.74507
855.7652, 27.79956
856.2473, 25.32956
856.7294, 21.27008
857.2115, 21.61914
857.6937, 25.04077
858.1758, 25.08485
858.6579, 21.24841
859.1400, 17.40289
859.6221, 15.20006
860.1042, 15.02200
860.5864, 18.29018
861.0685, 24.68091
861.5506, 24.71037
862.0327, 15.93451
862.5148, 10.60201
862.9969, 12.64851
863.4791, 16.23706
863.9612, 16.80353
864.4433, 15.26855
864.9254, 14.86070
865.4075, 16.62222
865.8896, 17.21661
866.3718, 15.41406
866.8539, 13.88890
867.3360, 13.71414
867.8181, 14.24416
868.3002, 14.74237
868.7823, 15.17108
869.2645, 15.94287
869.7466, 18.43832
870.2287, 19.74094
870.7108, 15.72263
871.1929, 11.41046
871.6750, 13.45007
872.1572, 19.29529
872.6393, 22.90703
873.1214, 22.21635
873.6035, 20.78252
874.0856, 22.34761
874.5677, 23.57614
875.0499, 19.39261
875.5320, 12.32961
876.0141, 7.562912
876.4962, 6.165970
876.9783, 6.899643
877.4604, 8.953140
877.9426, 11.35046
878.4247, 12.57178
878.9068, 12.82732
879.3889, 12.63074
879.8710, 12.10876
880.3531, 12.75043
880.8353, 15.33621
881.3174, 16.27518
881.7995, 10.00357
882.2816, 1.640060
882.7637, 4.988281
883.2458, 1.241394
883.7280, 7.113617
884.2101, 11.14537
884.6922, 13.20624
885.1743, 12.68805
885.6564, 10.64507
886.1385, 9.244659
886.6207, 7.973846
887.1028, 7.776550
887.5849, 10.13969
888.0670, 11.29880
888.5491, 8.246506
889.0313, 5.483566
889.5134, 8.134811
889.9955, 14.23706
890.4776, 16.08084
890.9597, 11.06514
891.4418, 5.866714
891.9240, 1.094788
892.4061, 5.335388
892.8882, 1.660141
893.3703, 4.623779
893.8524, 4.924728
894.3345, 1.000809
894.8167, 3.060715
895.2988, 7.152634
895.7809, 16.55365
896.2630, 17.02618
896.7451, 13.92703
897.2272, 12.15337
897.7094, 11.87740
898.1915, 11.76021
898.6736, 11.37169
899.1557, 11.14717
899.6378, 11.52769
900.1199, 12.06447
900.6021, 12.40619
901.0842, 12.29584
901.5663, 10.84013
902.0484, 8.466614
902.5305, 6.702286
903.0126, 6.120941
903.4948, 6.251984
903.9769, 6.154083
904.4590, 6.383698
904.9411, 10.06229
905.4232, 16.37909
905.9053, 17.22240
906.3875, 10.00157
906.8696, 3.251541
907.3517, 5.765411
907.8338, 14.48083
908.3159, 19.46463
908.7980, 20.86938
909.2802, 16.88457
909.7623, 6.177597
910.2444, 0.9592130
910.7265, 1.179321
911.2086, 7.136383
911.6907, 8.795654
912.1729, 6.255173
912.6550, 7.825790
913.1371, 15.86765
913.6192, 20.41771
914.1013, 18.79826
914.5834, 15.10286
915.0656, 10.94585
915.5477, 7.290604
916.0298, 6.443848
916.5119, 9.221725
916.9940, 11.35951
917.4761, 12.81235
917.9583, 13.60072
918.4404, 13.59364
918.9225, 13.15134
919.4046, 12.57013
919.8867, 12.14685
920.3688, 11.60001
920.8510, 10.64284
921.3331, 10.28731
921.8152, 11.66563
922.2973, 12.24309
922.7794, 9.331482
923.2615, 6.227112
923.7437, 7.340591
924.2258, 12.24139
924.7079, 15.35367
925.1900, 13.98845
925.6721, 12.27357
926.1542, 12.72571
926.6364, 12.69550
927.1185, 7.924438
927.6006, 2.053604
928.0827, 3.097992
928.5648, 12.05945
929.0469, 18.38158
929.5291, 13.03455
930.0112, 6.840698
930.4933, 9.417664
930.9754, 14.80507
931.4575, 15.33719
931.9396, 11.83151
932.4218, 8.973312
932.9039, 8.475327
933.3860, 8.172882
933.8681, 4.989166
934.3502, 1.929260
934.8323, 4.066635
935.3145, 9.002640
935.7966, 11.63397
936.2787, 11.64964
936.7608, 12.16541
937.2429, 15.01370
937.7250, 16.90598
938.2072, 11.71210
938.6893, 3.426849
939.1714, 2.454895
939.6535, 6.907822
940.1356, 8.065292
940.6177, 4.228500
941.0999, 1.190430
941.5820, 2.575577
942.0641, 5.790665
942.5462, 5.714478
943.0283, 3.252533
943.5104, 3.904999
943.9926, 7.512329
944.4747, 8.762207
944.9568, 5.982498
945.4389, 1.669800
945.9210, 2.347000
946.4031, 5.249817
946.8853, 4.000931
947.3674, 1.395782
947.8495, 4.837402
948.3316, 5.737366
948.8137, 7.321854
949.2958, 11.14090
949.7780, 14.36617
950.2601, 13.70311
950.7422, 10.20380
951.2243, 6.028061
951.7064, 0.2566070
952.1885, 0.8318940
952.6707, 4.691284
953.1528, 10.36978
953.6349, 13.06854
954.1170, 13.42265
954.5991, 12.05025
955.0812, 9.041565
955.5634, 5.983856
956.0455, 1.962402
956.5276, 1.054901
957.0097, 5.460342
957.4918, 9.569290
957.9739, 10.76305
958.4561, 9.385590
958.9382, 5.257309
959.4203, 2.101898
959.9024, 5.321426
960.3845, 1.769867
960.8666, 0.5810090
961.3488, 0.5874630
961.8309, 1.589783
962.3130, 0.2817230
962.7951, 3.611679
963.2772, 5.823853
963.7593, 7.091690
964.2415, 6.261154
964.7236, 0.4293520
965.2057, 3.777145
965.6878, 0.1696010
966.1699, 5.199478
966.6520, 8.713257
967.1342, 11.64902
967.6163, 18.01674
968.0984, 30.50116
968.5805, 35.29614
969.0626, 25.19484
969.5447, 15.93724
970.0269, 11.06120
970.5090, 8.803833
970.9911, 9.436981
971.4732, 11.32236
971.9553, 10.08646
972.4374, 4.034821
972.9196, 0.4874570
973.4017, 2.408737
973.8838, 2.992416
974.3659, 2.331192
974.8480, 0.7884670
975.3301, 2.988205
975.8123, 7.316086
976.2944, 6.600204
976.7765, 2.361023
977.2586, 8.555206
977.7407, 7.394150
978.2228, 5.565201
978.7050, 6.908234
979.1871, 8.261353
979.6692, 5.402557
980.1513, 0.3824770
980.6334, 3.795410
981.1155, 3.029877
981.5977, 1.949799
982.0798, 1.614624
982.5619, 1.330841
983.0440, 0.3497920
983.5261, 0.4699100
984.0082, 0.8136290
984.4904, 3.224487
984.9725, 2.403870
985.4546, 4.831467
985.9367, 9.539810
986.4188, 7.166687
986.9009, 2.929901
987.3831, 2.211182
987.8652, 6.136688
988.3473, 5.430237
988.8294, 1.199890
989.3115, 0.9119260
989.7936, 1.798187
990.2758, 3.750214
990.7579, 1.161957
991.2400, 1.258575
991.7221, 0.5954900
992.2042, 3.502350
992.6863, 3.073608
993.1685, 0.1828920
993.6506, 1.765259
994.1327, 0.3686830
994.6148, 2.724731
995.0969, 3.862000
995.5790, 4.580536
996.0612, 4.306458
996.5433, 4.541840
997.0254, 7.892334
997.5075, 14.04282
997.9896, 19.78198
998.4717, 24.28244
998.9539, 27.25351
999.4360, 28.92853
999.9181, 29.13989
1000.400, 25.13602
1000.882, 21.02383
1001.364, 22.25900
1001.847, 28.73831
1002.329, 37.11130
1002.811, 47.36847
1003.293, 55.70355
1003.775, 59.02878
1004.257, 61.22052
1004.739, 66.21735
1005.221, 71.40375
1005.703, 71.66602
1006.186, 67.96844
1006.668, 66.36691
1007.150, 69.14355
1007.632, 73.28006
1008.114, 80.85040
1008.596, 85.51456
1009.078, 82.62039
1009.560, 74.61078
1010.043, 61.88785
1010.525, 47.56738
1011.007, 40.17410
1011.489, 44.58463
1011.971, 47.71103
1012.453, 41.39746
1012.935, 34.98761
1013.417, 35.11194
1013.899, 37.51520
1014.382, 38.11957
1014.864, 36.48343
1015.346, 32.27161
1015.828, 24.31845
1016.310, 18.64099
1016.792, 19.43106
1017.274, 20.61880
1017.756, 20.24112
1018.239, 18.26498
1018.721, 11.65302
1019.203, 3.109741
1019.685, 1.647797
1020.167, 11.31815
1020.649, 18.97305
1021.131, 19.53357
1021.613, 17.98773
1022.095, 14.82358
1022.578, 12.05972
1023.060, 11.62320
1023.542, 13.43518
1024.024, 15.65649
1024.506, 17.77325
1024.988, 20.97699
1025.470, 27.44913
1025.952, 32.58905
1026.435, 32.72040
1026.917, 32.61298
1027.399, 37.16342
1027.881, 44.11450
1028.363, 47.66580
1028.845, 46.36914
1029.327, 47.83701
1029.809, 56.81525
1030.292, 64.04007
1030.774, 65.72244
1031.256, 66.05405
1031.738, 66.59378
1032.220, 68.52347
1032.702, 74.34064
1033.184, 84.57840
1033.666, 92.87210
1034.148, 93.45578
1034.630, 99.39346
1035.113, 118.4806
1035.595, 137.2494
1036.077, 146.8220
1036.559, 151.8112
1037.041, 158.9511
1037.523, 168.6774
1038.005, 179.7575
1038.487, 190.2430
1038.970, 204.4603
1039.452, 224.6360
1039.934, 246.1292
1040.416, 266.5536
1040.898, 287.3451
1041.380, 309.3955
1041.862, 332.9878
1042.344, 361.4157
1042.826, 392.0546
1043.309, 433.3193
1043.791, 491.4920
1044.273, 548.6821
1044.755, 593.2540
1045.237, 642.2499
1045.719, 716.0508
1046.201, 808.7702
1046.683, 891.9598
1047.166, 958.4471
1047.648, 1042.460
1048.130, 1147.044
1048.612, 1260.421
1049.094, 1377.624
1049.576, 1506.447
1050.058, 1654.622
1050.540, 1816.381
1051.022, 1973.859
1051.505, 2123.934
1051.987, 2301.039
1052.469, 2508.391
1052.951, 2716.821
1053.433, 2920.202
1053.915, 3121.603
1054.397, 3326.307
1054.879, 3527.546
1055.361, 3719.424
1055.844, 3899.480
1056.326, 4044.957
1056.808, 4156.741
1057.290, 4227.079
1057.772, 4254.790
1058.254, 4233.853
1058.736, 4160.314
1059.218, 4047.039
1059.701, 3908.926
1060.183, 3747.154
1060.665, 3564.312
1061.147, 3360.880
1061.629, 3136.354
1062.111, 2894.254
1062.593, 2661.475
1063.075, 2448.425
1063.557, 2251.197
1064.040, 2067.994
1064.522, 1899.493
1065.004, 1752.125
1065.486, 1620.341
1065.968, 1489.792
1066.450, 1362.563
1066.932, 1249.684
1067.414, 1153.132
1067.896, 1065.374
1068.379, 981.6048
1068.861, 904.5778
1069.343, 838.7591
1069.825, 780.6593
1070.307, 725.2095
1070.789, 673.6562
1071.271, 628.2561
1071.753, 588.7877
1072.236, 552.6490
1072.718, 518.8168
1073.200, 487.6202
1073.682, 455.8398
1074.164, 429.0469
1074.646, 417.2615
1075.128, 408.4474
1075.610, 384.0034
1076.093, 350.1543
1076.575, 327.7140
1077.057, 322.4901
1077.539, 319.5618
1078.021, 314.7757
1078.503, 308.4963
1078.985, 297.1715
1079.467, 287.2473
1079.949, 283.6861
1080.432, 285.1337
1080.914, 290.3928
1081.396, 298.5211
1081.878, 300.1248
1082.360, 282.7218
1082.842, 275.7575
1083.324, 287.6722
1083.806, 306.2749
1084.288, 332.0712
1084.771, 357.1019
1085.253, 373.3217
1085.735, 381.0768
1086.217, 382.0509
1086.699, 376.2638
1087.181, 363.4175
1087.663, 340.8867
1088.145, 316.3770
1088.628, 290.5226
1089.110, 265.0791
1089.592, 241.4003
1090.074, 219.8219
1090.556, 201.0698
1091.038, 185.5440
1091.520, 171.3556
1092.002, 158.9152
1092.484, 147.0980
1092.967, 135.5456
1093.449, 125.9453
1093.931, 119.3138
1094.413, 113.6140
1094.895, 106.1936
1095.377, 97.57489
1095.859, 89.77051
1096.341, 82.67667
1096.823, 75.50665
1097.306, 68.26895
1097.788, 60.84677
1098.270, 53.43698
1098.752, 49.54517
1099.234, 52.53946
1099.716, 58.19617
1100.198, 60.92004
1100.680, 61.11777
1101.163, 59.74323
1101.645, 56.52542
1102.127, 49.16757
1102.609, 38.89386
1103.091, 32.87042
1103.573, 35.59918
1104.055, 39.69391
1104.537, 39.25302
1105.020, 37.19397
1105.502, 35.03177
1105.984, 33.69766
1106.466, 34.55814
1106.948, 37.03635
1107.430, 39.99908
1107.912, 43.10828
1108.394, 45.55112
1108.876, 47.58359
1109.359, 48.19073
1109.841, 45.01779
1110.323, 42.64334
1110.805, 44.78491
1111.287, 48.61020
1111.769, 50.95068
1112.251, 51.69019
1112.733, 51.25763
1113.215, 47.98041
1113.698, 47.86072
1114.180, 54.94394
1114.662, 58.97003
1115.144, 56.46671
1115.626, 51.94986
1116.108, 48.20322
1116.590, 44.69162
1117.072, 41.23834
1117.555, 37.84283
1118.037, 31.71136
1118.519, 21.69336
1119.001, 15.62799
1119.483, 14.75653
1119.965, 16.21298
1120.447, 19.23575
1120.929, 21.03113
1121.411, 18.42435
1121.894, 13.20248
1122.376, 9.755402
1122.858, 7.912994
1123.340, 6.791412
1123.822, 6.349823
1124.304, 7.234512
1124.786, 9.178864
1125.268, 8.881729
1125.750, 4.328094
1126.233, 0.2294310
1126.715, 1.964737
1127.197, 5.505463
1127.679, 0.6642300
1128.161, 6.650192
1128.643, 4.924561
1129.125, 2.531082
1129.607, 2.784119
1130.090, 6.492279
1130.572, 11.00406
1131.054, 1.122757
1131.536, 11.25656
1132.018, 7.474579
1132.500, 0.9166560
1132.982, 2.173553
1133.464, 2.665863
1133.947, 0.5679630
1134.429, 2.725647
1134.911, 1.974182
1135.393, 5.967880
1135.875, 9.258041
1136.357, 1.092072
1136.839, 2.919373
1137.321, 2.899933
1137.803, 9.071960
1138.286, 10.83063
1138.768, 9.010696
1139.250, 3.798492
1139.732, 3.949631
1140.214, 5.225418
1140.696, 1.380722
1141.178, 2.743317
1141.660, 2.607178
1142.142, 5.974640
1142.625, 4.575455
1143.107, 1.847672
1143.589, 6.1416999E-02
1144.071, 1.089798
1144.553, 2.589066
1145.035, 3.977570
1145.517, 4.835587
1145.999, 4.171127
1146.482, 4.390198
1146.964, 17.96799
1147.446, 20.68520
1147.928, 7.597733
1148.410, 3.823654
1148.892, 0.6428070
1149.374, 9.140091
1149.856, 12.69812
1150.339, 13.77176
1150.821, 14.02536
1151.303, 13.91669
1151.785, 13.57991
1152.267, 13.22151
1152.749, 13.68118
1153.231, 15.71300
1153.713, 16.34026
1154.195, 13.65643
1154.677, 11.18654
1155.160, 9.617020
1155.642, 9.009567
1156.124, 9.959717
1156.606, 11.58446
1157.088, 12.06844
1157.570, 11.52745
1158.052, 10.72198
1158.534, 10.14581
1159.017, 5.834320
1159.499, 4.089600
1159.981, 6.411331
1160.463, 3.784744
1160.945, 14.35867
1161.427, 16.56624
1161.909, 13.86792
1162.391, 11.11430
1162.874, 8.674881
1163.356, 7.220825
1163.838, 7.216553
1164.320, 12.76117
1164.802, 21.48087
1165.284, 21.59140
1165.766, 10.50635
1166.248, 1.185684
1166.730, 2.524429
1167.213, 8.108719
1167.695, 16.32420
1168.177, 22.04913
1168.659, 18.02272
1169.141, 10.50038
1169.623, 6.876862
1170.105, 7.036987
1170.587, 7.918198
1171.069, 8.872955
1171.552, 11.51456
1172.034, 21.40036
1172.516, 24.67853
1172.998, 11.60477
1173.480, 2.886627
1173.962, 10.83835
1174.444, 21.94664
1174.926, 21.58328
1175.409, 13.44234
1175.891, 10.41487
1176.373, 12.92221
1176.855, 14.58296
1177.337, 15.37970
1177.819, 16.40477
1178.301, 17.84314
1178.783, 18.59709
1179.266, 18.13928
1179.748, 17.47543
1180.230, 17.62540
1180.712, 18.33514
1181.194, 20.58553
1181.676, 22.41591
1182.158, 17.80861
1182.640, 10.37213
1183.122, 8.021545
1183.604, 10.86916
1184.087, 15.19916
1184.569, 19.67726
1185.051, 22.30373
1185.533, 23.66557
1186.015, 22.49718
1186.497, 14.25948
1186.979, 8.346756
1187.461, 13.11394
1187.944, 22.70300
1188.426, 23.78644
1188.908, 17.94542
1189.390, 16.17754
1189.872, 19.18474
1190.354, 18.75420
1190.836, 14.08067
1191.318, 11.13377
1191.801, 11.20558
1192.283, 11.42906
1192.765, 11.01373
1193.247, 10.93909
1193.729, 11.75247
1194.211, 13.55544
1194.693, 14.92209
1195.175, 15.51096
1195.657, 13.88483
1196.140, 11.02275
1196.622, 10.07768
1197.104, 11.17937
1197.586, 11.64839
1198.068, 10.25331
1198.550, 8.624634
1199.032, 7.991943
1199.514, 5.636154
1199.996, 1.883606
1200.479, 0.3285980
1200.961, 4.603683
1201.443, 11.88423
1201.925, 14.23824
1202.407, 11.86427
1202.889, 9.269424
1203.371, 7.226791
1203.853, 5.759232
1204.336, 5.260132
1204.818, 3.607101
1205.300, 0.3917540
1205.782, 1.932861
1206.264, 1.477325
1206.746, 8.099365
1207.228, 16.29939
1207.710, 23.24303
1208.193, 19.10928
1208.675, 8.817657
1209.157, 7.370605
1209.639, 12.45921
1210.121, 15.79247
1210.603, 15.95241
1211.085, 14.42876
1211.567, 11.91289
1212.049, 10.76244
1212.531, 15.73178
1213.014, 17.93317
1213.496, 8.110519
1213.978, 0.8461910
1214.460, 2.387741
1214.942, 9.954224
1215.424, 11.35316
1215.906, 8.302185
1216.388, 8.769379
1216.871, 13.84404
1217.353, 15.35695
1217.835, 12.14911
1218.317, 10.26535
1218.799, 10.57152
1219.281, 12.15961
1219.763, 14.07199
1220.245, 16.62521
1220.728, 18.29550
1221.210, 19.00778
1221.692, 18.32484
1222.174, 16.21051
1222.656, 14.71906
1223.138, 14.26442
1223.620, 8.589447
1224.102, 0.2344510
1224.584, 1.975357
1225.067, 3.750366
1225.549, 9.668564
1226.031, 13.40996
1226.513, 14.08383
1226.995, 10.88724
1227.477, 8.727661
1227.959, 11.49510
1228.441, 13.87067
1228.923, 10.84451
1229.406, 5.785065
1229.888, 4.094238
1230.370, 5.744644
1230.852, 12.47879
1231.334, 24.76939
1231.816, 25.22125
1232.298, 18.23305
1232.780, 11.87036
1233.263, 8.651306
1233.745, 7.328156
1234.227, 7.222992
1234.709, 6.930893
1235.191, 5.305511
1235.673, 3.429520
1236.155, 1.412888
1236.637, 8.6806998E-02
1237.120, 0.1220860
1237.602, 1.193314
1238.084, 0.7132260
1238.566, 0.0000000E+00
##END=



