##NAMES=Lavinskyite
##RRUFFID=R120057
##IDEAL CHEMISTRY=K(LiCu)Cu_6_(Si_4_O_11_)_2_(OH)_4_
##LOCALITY=Wessels mine, Kalahari Manganese Fields, Northern Cape Province, South Africa
##OWNER=RRUFF
##SOURCE=William W. Pinch, Robert Lavinsky, and Marcus Origlieri
##DESCRIPTION=Light blue plates, associated with R120019 wesselsite, and R120077 scottyite. This is the type sample.
##STATUS=The identification of this mineral is confirmed by single-crystal X-ray diffraction and chemical analysis.
##URL=rruff.info/R120057
##MEASURED CHEMISTRY=(K_0.99_Ba_0.01_)_Σ=1.00_(Li_1.04_Cu_0.50_Mg_0.43_Na_0.10_Mn_0.01_)_Σ=2.08_Cu_6.00_Si_7.99_O_22_(OH)_4.00_  ; (Lavinskyite is the darkest material in the image)
226.9312, 0.0000000E+00
227.4133, 0.8554690
227.8954, 1.984863
228.3775, 4.215820
228.8597, 8.426758
229.3418, 16.43945
229.8239, 29.10352
230.3060, 41.01367
230.7881, 50.00391
231.2702, 57.21631
231.7524, 68.74707
232.2345, 85.00781
232.7166, 104.1714
233.1987, 125.4229
233.6808, 150.3105
234.1629, 173.1685
234.6451, 193.6597
235.1272, 211.9604
235.6093, 229.3433
236.0914, 248.3057
236.5735, 262.6953
237.0556, 268.4600
237.5378, 261.5903
238.0199, 254.8081
238.5020, 248.8911
238.9841, 243.5693
239.4662, 238.1475
239.9483, 233.0122
240.4305, 227.9214
240.9126, 222.3818
241.3947, 217.6846
241.8768, 211.1162
242.3589, 201.2568
242.8410, 189.5840
243.3232, 181.4312
243.8053, 177.6553
244.2874, 175.2817
244.7695, 173.4775
245.2516, 174.1973
245.7337, 170.5518
246.2159, 158.2808
246.6980, 141.1836
247.1801, 134.8486
247.6622, 144.5933
248.1443, 155.2603
248.6264, 160.0669
249.1086, 157.0649
249.5907, 151.9805
250.0728, 143.7642
250.5549, 134.4136
251.0370, 129.5547
251.5191, 133.6831
252.0013, 134.5068
252.4834, 125.3105
252.9655, 97.82520
253.4476, 80.44873
253.9297, 76.65967
254.4118, 82.02197
254.8940, 87.83350
255.3761, 92.91895
255.8582, 98.37451
256.3403, 107.3145
256.8224, 115.0894
257.3046, 122.7607
257.7867, 130.5342
258.2688, 138.5088
258.7509, 145.6538
259.2330, 154.0220
259.7151, 163.1553
260.1973, 170.2798
260.6794, 173.9678
261.1615, 177.8579
261.6436, 183.1372
262.1257, 188.3506
262.6078, 192.1445
263.0900, 196.0493
263.5721, 196.6514
264.0542, 191.2944
264.5363, 178.9536
265.0184, 172.1860
265.5005, 174.0781
265.9827, 177.8296
266.4648, 172.6079
266.9469, 154.6987
267.4290, 140.0952
267.9111, 134.3003
268.3932, 137.8848
268.8754, 139.7700
269.3575, 138.9116
269.8396, 137.7686
270.3217, 140.1260
270.8038, 147.1733
271.2859, 152.5088
271.7681, 154.2939
272.2502, 152.5332
272.7323, 148.2168
273.2144, 140.3364
273.6965, 132.0024
274.1786, 126.3491
274.6608, 123.4165
275.1429, 123.1753
275.6250, 127.4688
276.1071, 134.9976
276.5892, 134.3843
277.0714, 123.4297
277.5535, 110.6812
278.0356, 104.4551
278.5177, 105.3394
278.9998, 106.4614
279.4819, 106.7290
279.9641, 106.0762
280.4462, 105.4312
280.9283, 105.7969
281.4104, 101.7344
281.8925, 85.38867
282.3746, 56.52588
282.8568, 34.91455
283.3389, 26.06494
283.8210, 24.88281
284.3031, 16.33252
284.7852, 2.990723
285.2673, 10.24170
285.7495, 17.60889
286.2316, 19.41699
286.7137, 19.86475
287.1958, 19.05371
287.6779, 17.66357
288.1600, 17.37695
288.6422, 18.24219
289.1243, 18.77295
289.6064, 17.22412
290.0885, 14.31104
290.5706, 14.09766
291.0527, 17.88232
291.5349, 22.52637
292.0170, 23.46191
292.4991, 20.83301
292.9812, 15.63574
293.4633, 6.136719
293.9454, 5.666504
294.4276, 12.89160
294.9097, 14.60938
295.3918, 14.11621
295.8739, 15.20166
296.3560, 17.61523
296.8381, 20.11084
297.3203, 22.71582
297.8024, 24.91846
298.2845, 24.56250
298.7666, 21.23193
299.2487, 19.30420
299.7308, 23.49121
300.2130, 32.69775
300.6951, 43.71875
301.1772, 57.22559
301.6593, 70.79834
302.1414, 80.12891
302.6235, 85.22754
303.1057, 90.60693
303.5878, 99.54443
304.0699, 111.4170
304.5520, 125.2217
305.0341, 143.5811
305.5162, 161.1133
305.9984, 171.4590
306.4805, 175.4102
306.9626, 178.4155
307.4447, 181.9175
307.9268, 187.2764
308.4089, 196.5049
308.8911, 212.8594
309.3732, 229.0811
309.8553, 239.9062
310.3374, 245.8994
310.8195, 249.0854
311.3016, 245.7192
311.7838, 242.3164
312.2659, 244.9976
312.7480, 256.1016
313.2301, 270.1431
313.7122, 287.2178
314.1943, 304.8682
314.6765, 317.6650
315.1586, 321.1987
315.6407, 320.5298
316.1228, 318.4497
316.6049, 315.5220
317.0870, 312.4438
317.5692, 308.3403
318.0513, 304.6958
318.5334, 303.5513
319.0155, 306.6938
319.4976, 311.8472
319.9797, 317.9707
320.4619, 324.9458
320.9440, 333.4380
321.4261, 346.7207
321.9082, 360.1104
322.3903, 369.0903
322.8724, 371.3159
323.3546, 370.4189
323.8367, 365.0615
324.3188, 355.5435
324.8009, 349.9028
325.2830, 351.9077
325.7651, 356.8081
326.2473, 361.5825
326.7294, 364.9614
327.2115, 369.5400
327.6936, 377.5010
328.1757, 387.6768
328.6578, 394.2852
329.1400, 394.4863
329.6221, 393.6445
330.1042, 393.9834
330.5863, 395.6357
331.0684, 398.2842
331.5505, 401.2510
332.0327, 405.2002
332.5148, 411.7256
332.9969, 422.1587
333.4790, 433.1406
333.9611, 443.3735
334.4432, 451.9604
334.9254, 462.8472
335.4075, 478.3184
335.8896, 493.6895
336.3717, 501.3379
336.8538, 496.7842
337.3359, 495.0356
337.8180, 501.2461
338.3001, 515.2173
338.7823, 525.8633
339.2644, 532.9873
339.7465, 536.9839
340.2286, 538.1538
340.7107, 536.5986
341.1928, 531.8223
341.6750, 523.1909
342.1571, 511.5469
342.6392, 500.8228
343.1213, 491.0410
343.6034, 480.8828
344.0855, 469.6704
344.5677, 457.5396
345.0498, 443.7559
345.5319, 427.1621
346.0140, 410.7588
346.4961, 403.7158
346.9782, 405.5073
347.4604, 401.8071
347.9425, 378.6494
348.4246, 342.3042
348.9067, 317.8291
349.3888, 307.9658
349.8709, 302.8198
350.3531, 292.5361
350.8352, 277.5044
351.3173, 258.9165
351.7994, 231.0859
352.2815, 201.5859
352.7636, 184.9385
353.2458, 181.0005
353.7279, 179.6914
354.2100, 174.4736
354.6921, 165.7153
355.1742, 153.8667
355.6563, 136.5718
356.1385, 118.6245
356.6206, 104.6001
357.1027, 93.96338
357.5848, 84.34473
358.0669, 75.54590
358.5490, 66.49658
359.0312, 55.77295
359.5133, 41.68750
359.9954, 28.90381
360.4775, 20.70850
360.9596, 15.81787
361.4417, 11.50293
361.9239, 5.883789
362.4060, 1.271973
362.8881, 0.3046880
363.3702, 4.689453
363.8523, 4.900879
364.3344, 6.793457
364.8166, 22.69873
365.2987, 34.08350
365.7808, 35.26416
366.2629, 35.14307
366.7450, 35.55664
367.2271, 36.58887
367.7093, 38.29736
368.1914, 42.10400
368.6735, 45.78271
369.1556, 47.90381
369.6377, 48.71289
370.1198, 47.74072
370.6020, 44.71191
371.0841, 39.92285
371.5662, 34.25049
372.0483, 27.69531
372.5304, 20.49414
373.0125, 11.88037
373.4947, 0.8964840
373.9768, 6.116211
374.4589, 0.1640630
374.9410, 10.74512
375.4231, 14.00488
375.9052, 8.222168
376.3874, 0.3583980
376.8695, 10.32275
377.3516, 21.91553
377.8337, 34.04736
378.3158, 47.33252
378.7979, 60.45410
379.2801, 71.71729
379.7622, 81.22070
380.2443, 90.67285
380.7264, 100.4102
381.2085, 110.5088
381.6906, 120.8877
382.1728, 131.4038
382.6549, 143.5571
383.1370, 159.7163
383.6191, 178.5112
384.1012, 192.9839
384.5833, 201.3643
385.0655, 209.2236
385.5476, 226.5830
386.0297, 250.5391
386.5118, 269.5645
386.9939, 270.6025
387.4760, 266.6914
387.9582, 279.6211
388.4403, 310.1504
388.9224, 341.1733
389.4045, 357.4678
389.8866, 365.7310
390.3687, 375.6978
390.8509, 393.9800
391.3330, 411.1816
391.8151, 417.8242
392.2972, 416.8613
392.7793, 420.3184
393.2614, 438.1660
393.7436, 460.0347
394.2257, 479.1924
394.7078, 493.9502
395.1899, 506.5732
395.6720, 516.7817
396.1541, 525.4585
396.6363, 534.0571
397.1184, 540.8940
397.6005, 549.5264
398.0826, 562.7124
398.5647, 581.5840
399.0468, 596.0103
399.5290, 602.3638
400.0111, 605.3589
400.4932, 608.6807
400.9753, 609.5044
401.4574, 614.7690
401.9395, 627.7559
402.4217, 646.2476
402.9038, 658.6855
403.3859, 660.2437
403.8680, 662.8984
404.3501, 673.0181
404.8322, 692.9468
405.3144, 712.0483
405.7965, 730.6108
406.2786, 747.6851
406.7607, 759.7930
407.2428, 765.1182
407.7249, 775.8223
408.2071, 798.7632
408.6892, 831.0654
409.1713, 852.2842
409.6534, 860.9824
410.1355, 867.2075
410.6176, 878.5508
411.0998, 894.9692
411.5819, 916.8130
412.0640, 945.7129
412.5461, 977.4185
413.0282, 1007.051
413.5103, 1034.280
413.9925, 1058.061
414.4746, 1076.894
414.9567, 1092.479
415.4388, 1106.350
415.9209, 1118.496
416.4030, 1131.585
416.8852, 1149.953
417.3673, 1170.640
417.8494, 1188.875
418.3315, 1200.667
418.8136, 1211.505
419.2957, 1226.645
419.7779, 1244.986
420.2600, 1259.908
420.7421, 1264.534
421.2242, 1267.408
421.7063, 1274.584
422.1884, 1290.007
422.6706, 1303.265
423.1527, 1311.795
423.6348, 1317.392
424.1169, 1322.575
424.5990, 1324.169
425.0811, 1328.698
425.5633, 1338.461
426.0454, 1353.813
426.5275, 1370.234
427.0096, 1388.250
427.4917, 1407.125
427.9738, 1426.439
428.4560, 1446.461
428.9381, 1466.092
429.4202, 1483.883
429.9023, 1501.124
430.3844, 1524.882
430.8665, 1557.917
431.3487, 1589.251
431.8308, 1611.348
432.3129, 1623.459
432.7950, 1640.096
433.2771, 1662.560
433.7592, 1687.461
434.2414, 1711.326
434.7235, 1733.933
435.2056, 1753.917
435.6877, 1769.288
436.1698, 1782.908
436.6519, 1801.559
437.1341, 1825.105
437.6162, 1849.756
438.0983, 1876.114
438.5804, 1901.229
439.0625, 1919.300
439.5446, 1928.293
440.0268, 1933.900
440.5089, 1938.859
440.9910, 1944.246
441.4731, 1952.133
441.9552, 1968.072
442.4373, 1983.149
442.9195, 1993.020
443.4016, 1997.341
443.8837, 1994.674
444.3658, 1979.478
444.8479, 1959.573
445.3300, 1941.333
445.8122, 1930.205
446.2943, 1914.926
446.7764, 1894.192
447.2585, 1867.867
447.7406, 1835.654
448.2227, 1795.957
448.7049, 1751.794
449.1870, 1702.204
449.6691, 1646.215
450.1512, 1593.633
450.6333, 1546.398
451.1154, 1501.338
451.5976, 1455.896
452.0797, 1411.032
452.5618, 1364.500
453.0439, 1315.634
453.5260, 1265.448
454.0081, 1213.205
454.4903, 1158.185
454.9724, 1104.820
455.4545, 1053.325
455.9366, 1004.705
456.4187, 964.4111
456.9008, 933.8560
457.3830, 906.0977
457.8651, 876.2002
458.3472, 843.2222
458.8293, 805.2373
459.3114, 758.0791
459.7935, 708.6328
460.2757, 663.9058
460.7578, 623.7456
461.2399, 586.6313
461.7220, 552.5469
462.2041, 520.4746
462.6862, 490.1968
463.1684, 462.1299
463.6505, 434.4756
464.1326, 407.0771
464.6147, 379.8418
465.0968, 352.1421
465.5789, 322.3418
466.0611, 294.5293
466.5432, 270.1050
467.0253, 249.0654
467.5074, 229.0981
467.9895, 210.9712
468.4716, 193.1079
468.9538, 174.2476
469.4359, 150.6772
469.9180, 134.8628
470.4001, 129.2842
470.8822, 129.5039
471.3643, 129.9346
471.8465, 131.1470
472.3286, 130.2759
472.8107, 126.1387
473.2928, 119.0244
473.7749, 109.5381
474.2570, 96.70508
474.7392, 88.47314
475.2213, 93.11719
475.7034, 107.5859
476.1855, 116.9609
476.6676, 119.8828
477.1497, 120.0601
477.6319, 118.7476
478.1140, 116.1895
478.5961, 115.2505
479.0782, 120.6040
479.5603, 127.4287
480.0424, 128.7319
480.5246, 125.1655
481.0067, 122.3237
481.4888, 121.1099
481.9709, 123.1323
482.4530, 130.7690
482.9352, 147.0005
483.4173, 162.9141
483.8994, 176.8359
484.3815, 187.8535
484.8636, 194.4453
485.3457, 185.8750
485.8279, 183.4263
486.3100, 195.2256
486.7921, 221.5415
487.2742, 244.9844
487.7563, 265.3271
488.2384, 283.4722
488.7206, 299.0811
489.2027, 309.3047
489.6848, 325.2603
490.1669, 349.4116
490.6490, 376.9795
491.1311, 399.9531
491.6133, 417.0757
492.0954, 437.0762
492.5775, 463.4751
493.0596, 494.5176
493.5417, 523.9644
494.0238, 551.5918
494.5060, 579.6543
494.9881, 611.0869
495.4702, 643.8398
495.9523, 673.9829
496.4344, 700.8164
496.9165, 724.5127
497.3987, 744.0303
497.8808, 760.7085
498.3629, 776.7646
498.8450, 795.5098
499.3271, 812.0371
499.8092, 823.9297
500.2914, 831.1768
500.7735, 832.8682
501.2556, 821.8564
501.7377, 810.4839
502.2198, 807.5684
502.7019, 820.4873
503.1841, 825.3101
503.6662, 815.2031
504.1483, 797.1133
504.6304, 779.1411
505.1125, 762.7261
505.5946, 744.6274
506.0768, 724.4819
506.5589, 702.1514
507.0410, 675.8062
507.5231, 643.6558
508.0052, 612.4395
508.4873, 585.5913
508.9695, 563.4658
509.4516, 541.2178
509.9337, 518.7817
510.4158, 496.0879
510.8979, 473.3760
511.3800, 450.2729
511.8622, 425.9941
512.3443, 399.3623
512.8264, 372.7959
513.3085, 349.3315
513.7906, 328.4360
514.2728, 308.1226
514.7549, 290.1934
515.2370, 270.5635
515.7191, 243.2041
516.2012, 207.0381
516.6833, 175.9551
517.1655, 157.1689
517.6476, 145.6250
518.1297, 137.1196
518.6118, 135.9463
519.0939, 131.3740
519.5760, 118.9082
520.0582, 102.1060
520.5403, 89.11523
521.0224, 81.84521
521.5045, 75.92773
521.9866, 70.49756
522.4688, 65.48047
522.9509, 59.96045
523.4330, 53.53857
523.9151, 47.23389
524.3972, 41.80762
524.8793, 37.25732
525.3615, 32.91504
525.8436, 28.66553
526.3257, 24.46191
526.8078, 21.44922
527.2899, 18.89453
527.7720, 13.24072
528.2542, 0.8007810
528.7363, 13.60742
529.2184, 24.14795
529.7005, 31.00537
530.1826, 35.77588
530.6647, 37.00000
531.1469, 37.94727
531.6290, 43.01709
532.1111, 54.57227
532.5932, 60.85498
533.0753, 50.40137
533.5574, 35.19824
534.0396, 27.81006
534.5217, 42.29541
535.0038, 50.23877
535.4859, 43.70215
535.9680, 27.73877
536.4501, 18.22119
536.9323, 18.02783
537.4144, 19.30908
537.8965, 19.95947
538.3786, 20.02100
538.8607, 17.10791
539.3428, 10.19531
539.8250, 1.688477
540.3071, 5.386230
540.7892, 10.85352
541.2713, 16.94873
541.7534, 24.19141
542.2355, 31.14258
542.7177, 34.12549
543.1998, 34.74561
543.6819, 37.72168
544.1640, 46.37598
544.6461, 57.32617
545.1282, 68.17725
545.6104, 78.90674
546.0925, 89.11572
546.5746, 98.21338
547.0567, 106.9019
547.5388, 115.4341
548.0209, 122.8984
548.5031, 133.2178
548.9852, 148.9189
549.4673, 166.5195
549.9494, 182.5391
550.4315, 198.3579
550.9136, 210.5557
551.3958, 218.2256
551.8779, 222.2256
552.3600, 224.5093
552.8421, 224.1836
553.3242, 224.9409
553.8063, 228.9688
554.2885, 235.7051
554.7706, 240.0747
555.2527, 241.8545
555.7348, 243.8389
556.2169, 249.5479
556.6990, 257.3711
557.1812, 263.5303
557.6633, 267.8784
558.1454, 269.1748
558.6275, 263.0845
559.1096, 253.6802
559.5917, 247.6812
560.0739, 251.1113
560.5560, 255.7319
561.0381, 257.4688
561.5202, 256.9585
562.0023, 256.9932
562.4844, 258.0645
562.9666, 259.8809
563.4487, 262.8110
563.9308, 267.5869
564.4129, 269.8267
564.8950, 268.4751
565.3771, 265.7729
565.8593, 264.1782
566.3414, 264.8115
566.8235, 260.9390
567.3056, 250.1274
567.7877, 236.2812
568.2698, 226.0024
568.7520, 219.6895
569.2341, 217.9717
569.7162, 225.0527
570.1983, 234.4922
570.6804, 233.1172
571.1625, 222.8589
571.6447, 212.7256
572.1268, 208.4702
572.6089, 207.1899
573.0910, 207.3530
573.5731, 209.4292
574.0552, 208.6245
574.5374, 197.6440
575.0195, 185.2109
575.5016, 179.4272
575.9837, 189.3799
576.4658, 196.6289
576.9479, 198.3896
577.4301, 196.4297
577.9122, 193.9629
578.3943, 189.5044
578.8764, 187.3018
579.3585, 189.1548
579.8406, 194.2598
580.3228, 198.5850
580.8049, 202.7480
581.2870, 202.0239
581.7691, 191.2637
582.2512, 172.7046
582.7333, 154.1235
583.2155, 135.7031
583.6975, 120.2979
584.1796, 110.1914
584.6617, 104.7729
585.1439, 103.1929
585.6260, 106.7793
586.1081, 111.4897
586.5902, 117.9624
587.0723, 123.0015
587.5544, 120.4453
588.0366, 100.2329
588.5187, 80.77246
589.0008, 66.99658
589.4829, 58.79932
589.9650, 54.45264
590.4471, 59.09326
590.9293, 62.07764
591.4114, 56.61426
591.8935, 40.01758
592.3756, 29.72607
592.8577, 27.52979
593.3398, 28.58496
593.8220, 27.58887
594.3041, 24.61475
594.7862, 23.00635
595.2683, 24.56104
595.7504, 24.69531
596.2325, 14.72900
596.7147, 1.443848
597.1968, 13.83740
597.6789, 18.68115
598.1610, 17.77295
598.6431, 8.519043
599.1252, 6.575195
599.6074, 16.49756
600.0895, 12.90137
600.5716, 7.069336
601.0537, 4.629883
601.5358, 7.074219
602.0179, 7.550781
602.5001, 4.402344
602.9822, 0.8149410
603.4643, 0.3188480
603.9464, 2.457520
604.4285, 1.254883
604.9106, 6.007813
605.3928, 14.44531
605.8749, 16.21582
606.3570, 11.75830
606.8391, 6.474609
607.3212, 1.345703
607.8033, 2.826172
608.2855, 4.206055
608.7676, 3.374512
609.2497, 2.612305
609.7318, 2.714844
610.2139, 3.620117
610.6960, 5.565430
611.1782, 8.475586
611.6603, 11.24414
612.1424, 13.29834
612.6245, 15.26318
613.1066, 17.86670
613.5887, 22.97656
614.0709, 24.60059
614.5530, 21.57373
615.0351, 16.28467
615.5172, 10.38086
615.9993, 2.876953
616.4814, 0.4794920
616.9636, 1.873047
617.4457, 7.616699
617.9278, 13.80615
618.4099, 20.07031
618.8920, 22.87012
619.3741, 17.85156
619.8563, 10.55615
620.3384, 10.47705
620.8205, 16.10107
621.3026, 20.07422
621.7847, 17.28955
622.2668, 11.80518
622.7490, 5.904785
623.2311, 0.3701170
623.7132, 4.774902
624.1953, 8.072754
624.6774, 8.174316
625.1595, 2.799805
625.6417, 17.00586
626.1238, 23.95020
626.6059, 11.35791
627.0880, 6.632324
627.5701, 9.254883
628.0522, 5.628906
628.5344, 14.75146
629.0165, 11.07178
629.4986, 2.266602
629.9807, 4.437012
630.4628, 15.63818
630.9449, 25.41406
631.4271, 26.42920
631.9092, 24.73438
632.3913, 28.04834
632.8734, 35.25195
633.3555, 39.40283
633.8376, 30.99316
634.3198, 23.09961
634.8019, 24.75684
635.2840, 39.09473
635.7661, 50.93994
636.2482, 58.87744
636.7303, 63.86572
637.2125, 66.38525
637.6946, 66.04102
638.1767, 63.84326
638.6588, 58.30664
639.1409, 53.71484
639.6230, 57.71533
640.1052, 69.72217
640.5873, 80.21484
641.0694, 86.74121
641.5515, 90.64746
642.0336, 93.68604
642.5157, 95.64160
642.9979, 95.90625
643.4800, 91.12646
643.9621, 87.00830
644.4442, 87.78223
644.9263, 92.94336
645.4084, 99.25049
645.8906, 107.1997
646.3727, 114.7085
646.8548, 120.9468
647.3369, 125.9736
647.8190, 129.4966
648.3011, 131.3105
648.7833, 131.9214
649.2654, 130.7446
649.7475, 127.2661
650.2296, 127.3384
650.7117, 131.6514
651.1938, 138.9043
651.6760, 147.0732
652.1581, 156.6187
652.6402, 169.6963
653.1223, 189.3545
653.6044, 207.5103
654.0865, 215.1206
654.5687, 215.7266
655.0508, 217.1201
655.5329, 222.1782
656.0150, 229.9351
656.4971, 242.1343
656.9792, 258.0063
657.4614, 271.5044
657.9435, 279.1138
658.4256, 287.9233
658.9077, 301.1909
659.3898, 318.8091
659.8719, 332.5894
660.3541, 341.6006
660.8362, 350.0903
661.3183, 359.6699
661.8004, 371.4282
662.2825, 391.0620
662.7646, 418.9946
663.2468, 445.7407
663.7289, 460.1816
664.2110, 470.5684
664.6931, 487.3506
665.1752, 514.1714
665.6573, 544.1460
666.1395, 573.1714
666.6216, 604.0552
667.1037, 640.3877
667.5858, 690.8154
668.0679, 736.4155
668.5500, 772.3862
669.0322, 804.0669
669.5143, 841.4023
669.9964, 884.4775
670.4785, 933.3999
670.9606, 988.7466
671.4427, 1049.808
671.9249, 1113.101
672.4070, 1178.981
672.8891, 1249.362
673.3712, 1325.029
673.8533, 1405.344
674.3354, 1488.747
674.8176, 1575.797
675.2997, 1666.351
675.7818, 1756.683
676.2639, 1852.036
676.7460, 1957.805
677.2281, 2076.199
677.7103, 2190.190
678.1924, 2297.669
678.6745, 2402.318
679.1566, 2509.271
679.6387, 2621.519
680.1208, 2723.919
680.6030, 2818.451
681.0851, 2898.165
681.5672, 2959.421
682.0493, 3000.918
682.5314, 3020.022
683.0135, 3016.921
683.4957, 2990.465
683.9778, 2935.795
684.4599, 2855.922
684.9420, 2758.765
685.4241, 2640.016
685.9063, 2512.987
686.3884, 2374.772
686.8705, 2229.760
687.3526, 2091.571
687.8347, 1961.075
688.3168, 1835.234
688.7990, 1714.387
689.2811, 1597.354
689.7632, 1487.162
690.2453, 1384.549
690.7274, 1286.570
691.2095, 1189.933
691.6917, 1097.796
692.1738, 1018.906
692.6559, 954.0811
693.1380, 896.3096
693.6201, 842.3584
694.1022, 792.0054
694.5844, 744.2749
695.0665, 699.0894
695.5486, 657.7354
696.0307, 623.7939
696.5128, 591.8350
696.9949, 556.8008
697.4771, 514.4092
697.9592, 478.0737
698.4413, 449.4819
698.9234, 425.2939
699.4055, 401.6270
699.8876, 378.5425
700.3698, 357.1597
700.8519, 337.4097
701.3340, 321.0532
701.8161, 316.1084
702.2982, 316.7446
702.7803, 307.6528
703.2625, 273.9873
703.7446, 239.9883
704.2267, 221.3716
704.7088, 214.4907
705.1909, 211.5771
705.6730, 214.9463
706.1552, 217.1445
706.6373, 216.2402
707.1194, 212.5869
707.6015, 207.8438
708.0836, 201.4424
708.5657, 195.2881
709.0479, 189.7114
709.5300, 184.9180
710.0121, 182.0581
710.4942, 181.0659
710.9763, 181.4512
711.4584, 184.6685
711.9406, 188.1084
712.4227, 187.9414
712.9048, 184.1279
713.3869, 180.6714
713.8690, 183.2002
714.3511, 184.1880
714.8333, 177.1626
715.3154, 156.5571
715.7975, 145.4829
716.2796, 150.9224
716.7617, 157.6821
717.2438, 152.6826
717.7260, 134.6333
718.2081, 120.4922
718.6902, 112.0347
719.1723, 104.9521
719.6544, 92.89258
720.1365, 78.40137
720.6187, 67.87988
721.1008, 62.83447
721.5829, 61.30469
722.0650, 63.94287
722.5471, 68.31738
723.0292, 71.27734
723.5114, 71.97461
723.9935, 70.79346
724.4756, 67.54834
724.9577, 62.44824
725.4398, 54.83447
725.9219, 42.40869
726.4041, 34.77051
726.8862, 35.04932
727.3683, 40.13525
727.8504, 43.85059
728.3325, 46.02295
728.8146, 45.23730
729.2968, 38.04346
729.7789, 29.95605
730.2610, 28.63770
730.7431, 31.98926
731.2252, 33.06494
731.7073, 28.06250
732.1895, 20.94775
732.6716, 10.74805
733.1537, 1.575684
733.6358, 5.103027
734.1179, 6.453613
734.6000, 16.19189
735.0822, 16.58203
735.5643, 8.627930
736.0464, 0.7182620
736.5285, 7.232910
737.0106, 12.87109
737.4927, 12.75146
737.9749, 9.831055
738.4570, 10.50830
738.9391, 14.86377
739.4212, 15.57617
739.9033, 1.788086
740.3854, 12.55176
740.8676, 15.70215
741.3497, 1.875977
741.8318, 4.894043
742.3139, 1.409180
742.7960, 9.854004
743.2781, 12.88818
743.7603, 8.913086
744.2424, 7.065430
744.7245, 8.123047
745.2066, 11.05566
745.6887, 15.58203
746.1708, 20.90430
746.6530, 24.44385
747.1351, 24.79883
747.6172, 23.05908
748.0993, 17.07129
748.5814, 12.64209
749.0635, 15.36768
749.5457, 31.37646
750.0278, 45.38623
750.5099, 53.11230
750.9920, 59.40381
751.4741, 71.02002
751.9562, 90.95068
752.4384, 102.0142
752.9205, 99.23340
753.4026, 92.03662
753.8847, 96.65674
754.3668, 109.3521
754.8489, 118.0508
755.3311, 117.1216
755.8132, 114.4888
756.2953, 117.4351
756.7774, 123.4712
757.2595, 128.1533
757.7416, 129.0776
758.2238, 130.1953
758.7059, 131.2573
759.1880, 133.0171
759.6701, 137.9565
760.1522, 147.9453
760.6343, 155.6172
761.1165, 159.0054
761.5986, 159.3032
762.0807, 158.8018
762.5628, 157.6597
763.0449, 156.5938
763.5270, 154.7969
764.0092, 154.2207
764.4913, 158.7993
764.9734, 166.3599
765.4555, 170.2778
765.9376, 165.7383
766.4197, 159.5293
766.9019, 152.6313
767.3840, 145.6494
767.8661, 142.0674
768.3482, 143.4214
768.8303, 143.4087
769.3124, 138.3975
769.7946, 130.4873
770.2767, 128.3521
770.7588, 131.2324
771.2409, 132.0566
771.7230, 124.3467
772.2051, 113.9341
772.6873, 106.9780
773.1694, 103.0015
773.6515, 97.45508
774.1336, 84.29590
774.6157, 73.58447
775.0978, 70.72754
775.5800, 75.38867
776.0621, 78.31201
776.5442, 79.41455
777.0263, 79.09131
777.5084, 77.14893
777.9905, 73.89746
778.4727, 71.10156
778.9548, 68.66064
779.4369, 65.29932
779.9190, 58.04395
780.4011, 50.68408
780.8832, 47.65332
781.3654, 49.15771
781.8475, 49.51660
782.3296, 46.78174
782.8117, 42.46191
783.2938, 36.58398
783.7759, 28.72266
784.2581, 25.17920
784.7402, 27.37256
785.2223, 29.78467
785.7044, 28.00830
786.1865, 23.35645
786.6686, 21.58008
787.1508, 22.83008
787.6329, 22.54297
788.1150, 12.65576
788.5971, 2.494629
789.0792, 2.482910
789.5613, 14.87793
790.0435, 25.43164
790.5256, 29.48975
791.0077, 31.77490
791.4898, 34.94580
791.9719, 39.44873
792.4540, 41.72363
792.9362, 41.24023
793.4183, 39.81201
793.9004, 38.35742
794.3825, 36.79248
794.8646, 36.90869
795.3467, 39.14648
795.8289, 38.57373
796.3110, 26.51025
796.7931, 13.25049
797.2752, 8.885742
797.7573, 17.70361
798.2394, 23.23486
798.7216, 23.73779
799.2037, 20.57227
799.6858, 13.00928
800.1679, 0.1333010
800.6500, 5.473633
801.1321, 1.825195
801.6143, 2.549805
802.0964, 0.6074220
802.5785, 8.270020
803.0606, 16.16553
803.5427, 23.99854
804.0248, 26.65283
804.5070, 14.39453
804.9891, 0.5551760
805.4712, 3.643555
805.9533, 7.844238
806.4354, 13.29199
806.9175, 10.38184
807.3997, 4.781738
807.8818, 0.8583980
808.3639, 1.393066
808.8460, 7.058594
809.3281, 16.92969
809.8102, 23.52246
810.2924, 15.05762
810.7745, 1.599609
811.2566, 2.181641
811.7387, 6.469727
812.2208, 14.35254
812.7029, 15.89014
813.1851, 15.60107
813.6672, 17.18359
814.1493, 22.27148
814.6314, 21.21777
815.1135, 11.00732
815.5956, 2.111816
816.0778, 4.688965
816.5599, 16.13770
817.0420, 24.91309
817.5241, 30.35449
818.0062, 33.69043
818.4883, 33.78613
818.9705, 33.51904
819.4526, 36.24707
819.9347, 42.90234
820.4168, 47.86572
820.8989, 49.77637
821.3810, 49.73438
821.8632, 47.77197
822.3453, 43.55322
822.8274, 41.56885
823.3095, 42.36719
823.7916, 42.78174
824.2737, 39.02930
824.7559, 33.59326
825.2380, 31.76270
825.7201, 33.82422
826.2022, 36.61963
826.6843, 41.64746
827.1664, 44.12012
827.6486, 38.40283
828.1307, 21.72803
828.6128, 15.35693
829.0949, 24.14307
829.5770, 34.73535
830.0591, 39.56006
830.5413, 39.20654
831.0234, 41.59570
831.5055, 46.64062
831.9876, 50.74512
832.4697, 51.47949
832.9518, 49.85742
833.4340, 46.15869
833.9161, 40.64990
834.3982, 36.14893
834.8803, 33.55957
835.3624, 32.39648
835.8445, 32.92383
836.3267, 35.02100
836.8088, 35.30859
837.2909, 33.49561
837.7730, 31.30078
838.2551, 28.56934
838.7372, 26.54590
839.2194, 30.06201
839.7015, 37.98096
840.1836, 43.65723
840.6657, 41.29980
841.1478, 37.24023
841.6299, 34.83105
842.1121, 34.14844
842.5942, 34.57568
843.0763, 37.80664
843.5584, 38.83740
844.0405, 35.30762
844.5226, 28.56494
845.0048, 23.76416
845.4869, 20.81787
845.9690, 18.94385
846.4511, 18.28760
846.9332, 18.07031
847.4153, 18.26318
847.8975, 18.31396
848.3796, 16.56348
848.8617, 10.87695
849.3438, 5.197754
849.8259, 0.2543950
850.3080, 4.588867
850.7902, 5.463379
851.2723, 2.751953
851.7544, 3.099609
852.2365, 12.60938
852.7186, 24.24170
853.2007, 39.24268
853.6829, 54.19189
854.1650, 59.65967
854.6471, 43.98779
855.1292, 28.25732
855.6113, 23.20459
856.0934, 24.63623
856.5756, 24.95605
857.0577, 24.21143
857.5398, 20.67822
858.0219, 12.33008
858.5040, 3.434082
858.9861, 2.311523
859.4683, 7.853027
859.9504, 14.79395
860.4325, 22.44922
860.9146, 27.74561
861.3967, 27.17285
861.8788, 23.14502
862.3610, 19.14453
862.8431, 15.48730
863.3252, 11.83105
863.8073, 6.552246
864.2894, 1.734863
864.7715, 2.5878999E-02
865.2537, 1.806152
865.7358, 4.554199
866.2179, 8.462891
866.7000, 10.97168
867.1821, 8.197266
867.6642, 2.843750
868.1464, 1.820801
868.6285, 5.833984
869.1106, 6.802734
869.5927, 0.4467770
870.0748, 8.422363
870.5569, 11.91797
871.0391, 9.843262
871.5212, 9.484375
872.0033, 10.53271
872.4854, 13.69385
872.9675, 21.10693
873.4496, 30.14404
873.9318, 34.93945
874.4139, 35.54248
874.8960, 35.39062
875.3781, 36.37939
875.8602, 37.42920
876.3423, 36.71875
876.8245, 34.49268
877.3066, 38.21338
877.7887, 52.15869
878.2708, 62.86768
878.7529, 64.21875
879.2350, 58.94189
879.7172, 54.49121
880.1993, 51.26172
880.6814, 50.60645
881.1635, 53.80225
881.6456, 59.46338
882.1277, 68.34863
882.6099, 78.90137
883.0920, 86.56787
883.5741, 88.24512
884.0562, 90.16357
884.5383, 93.26562
885.0204, 96.40576
885.5026, 96.30469
885.9847, 93.22559
886.4668, 93.22461
886.9489, 98.75439
887.4310, 106.6260
887.9131, 113.8799
888.3953, 121.0059
888.8774, 128.4634
889.3595, 140.6680
889.8416, 146.6968
890.3237, 143.5913
890.8058, 136.5737
891.2880, 128.9111
891.7701, 119.9414
892.2522, 113.2041
892.7343, 109.0332
893.2164, 107.7383
893.6985, 111.7524
894.1807, 117.9116
894.6628, 121.5811
895.1449, 121.6904
895.6270, 121.1045
896.1091, 122.6191
896.5912, 122.4043
897.0734, 116.8218
897.5555, 104.8960
898.0376, 102.3315
898.5197, 110.8125
899.0018, 119.1206
899.4839, 117.4111
899.9661, 111.0483
900.4482, 109.0488
900.9303, 111.6367
901.4124, 117.7388
901.8945, 133.1895
902.3766, 145.9580
902.8588, 147.1606
903.3409, 139.9917
903.8230, 139.8667
904.3051, 148.3877
904.7872, 157.5005
905.2693, 164.9487
905.7515, 170.8901
906.2336, 176.0693
906.7157, 179.9658
907.1978, 181.2051
907.6799, 171.7617
908.1620, 168.8018
908.6442, 188.3213
909.1263, 217.1807
909.6084, 233.1450
910.0905, 231.2007
910.5726, 228.0742
911.0547, 223.4346
911.5369, 221.9946
912.0190, 233.4722
912.5011, 253.0811
912.9832, 267.3501
913.4653, 273.7705
913.9474, 275.8940
914.4296, 271.6035
914.9117, 266.7720
915.3938, 266.3481
915.8759, 270.9399
916.3580, 278.3921
916.8401, 291.4873
917.3223, 301.5015
917.8044, 299.0483
918.2865, 288.3413
918.7686, 286.6611
919.2507, 293.0854
919.7328, 297.7231
920.2150, 295.0332
920.6971, 288.0835
921.1792, 276.5107
921.6613, 261.4966
922.1434, 251.5312
922.6255, 250.6558
923.1077, 245.8120
923.5898, 230.9370
924.0719, 212.2261
924.5540, 205.3237
925.0361, 207.2891
925.5182, 206.9736
926.0004, 200.2114
926.4825, 189.6182
926.9646, 172.2188
927.4467, 154.0859
927.9288, 144.5020
928.4109, 150.0923
928.8931, 149.9214
929.3752, 141.9819
929.8573, 130.4189
930.3394, 118.1987
930.8215, 106.2354
931.3036, 98.66699
931.7858, 96.41211
932.2679, 92.51172
932.7500, 80.72510
933.2321, 66.57373
933.7142, 53.42529
934.1964, 41.60986
934.6785, 33.24902
935.1606, 29.25244
935.6427, 26.93262
936.1248, 25.97607
936.6069, 25.33105
937.0891, 19.95605
937.5712, 10.97217
938.0533, 4.454590
938.5354, 5.428223
939.0175, 7.918457
939.4996, 9.888672
939.9818, 10.52100
940.4639, 7.528809
940.9460, 1.511230
941.4281, 8.110352
941.9102, 10.55273
942.3923, 10.52002
942.8745, 10.06055
943.3566, 9.346191
943.8387, 9.450684
944.3208, 11.54590
944.8029, 10.92578
945.2850, 0.4912110
945.7672, 11.25244
946.2493, 16.61719
946.7314, 15.47461
947.2135, 6.904785
947.6956, 11.97119
948.1777, 28.14990
948.6599, 28.83887
949.1420, 19.76953
949.6241, 13.96777
950.1062, 11.59912
950.5883, 10.42285
951.0704, 11.14404
951.5526, 10.99512
952.0347, 8.965820
952.5168, 4.974609
952.9989, 2.789063
953.4810, 16.23535
953.9631, 23.93359
954.4453, 21.25098
954.9274, 13.65723
955.4095, 8.583496
955.8916, 5.815430
956.3737, 5.118164
956.8558, 8.702637
957.3380, 10.14160
957.8201, 3.021484
958.3022, 4.213867
958.7843, 2.199707
959.2664, 12.29883
959.7485, 16.33447
960.2307, 7.877441
960.7128, 0.8837890
961.1949, 1.313965
961.6770, 9.701172
962.1591, 19.20557
962.6412, 29.16895
963.1234, 35.31641
963.6055, 29.35840
964.0876, 27.19287
964.5697, 37.46143
965.0518, 55.47656
965.5339, 58.16797
966.0161, 45.49219
966.4982, 38.22119
966.9803, 46.78174
967.4624, 60.05225
967.9445, 67.04541
968.4266, 69.63379
968.9088, 70.77148
969.3909, 67.89111
969.8730, 69.14697
970.3551, 79.21094
970.8372, 88.31738
971.3193, 83.04150
971.8015, 65.81592
972.2836, 60.26025
972.7657, 68.53955
973.2478, 79.38135
973.7299, 85.85986
974.2120, 89.88818
974.6942, 93.22803
975.1763, 95.97510
975.6584, 95.76709
976.1405, 89.81494
976.6226, 86.91016
977.1047, 91.14307
977.5869, 99.75781
978.0690, 105.8921
978.5511, 109.7129
979.0332, 112.2119
979.5153, 113.7754
979.9974, 114.0337
980.4796, 111.3975
980.9617, 107.8975
981.4438, 106.4307
981.9259, 107.6504
982.4080, 109.6650
982.8901, 113.0854
983.3723, 114.9229
983.8544, 109.4771
984.3365, 101.3608
984.8186, 99.09814
985.3007, 103.4365
985.7828, 111.2129
986.2650, 129.5366
986.7471, 141.7480
987.2292, 137.4507
987.7113, 120.9849
988.1934, 116.8940
988.6755, 125.7363
989.1577, 131.9604
989.6398, 127.7017
990.1219, 121.0122
990.6040, 121.7866
991.0861, 126.8086
991.5682, 130.6680
992.0504, 130.4512
992.5325, 131.2461
993.0146, 134.9248
993.4967, 137.8086
993.9788, 135.8096
994.4609, 129.5845
994.9431, 124.8071
995.4252, 121.7915
995.9073, 118.3164
996.3894, 111.7451
996.8715, 104.9546
997.3536, 100.4551
997.8358, 98.16357
998.3179, 94.43408
998.8000, 88.45898
999.2821, 82.29688
999.7642, 76.23877
1000.246, 71.37793
1000.728, 70.64160
1001.211, 72.77100
1001.693, 74.97168
1002.175, 78.31104
1002.657, 77.26611
1003.139, 63.91064
1003.621, 49.22021
1004.103, 43.67236
1004.585, 48.81299
1005.068, 54.85498
1005.550, 61.54639
1006.032, 65.81104
1006.514, 64.31641
1006.996, 61.58789
1007.478, 62.47217
1007.960, 66.49316
1008.442, 70.90576
1008.924, 77.61230
1009.407, 80.76367
1009.889, 78.68750
1010.371, 73.05127
1010.853, 66.22949
1011.335, 58.42139
1011.817, 52.46729
1012.299, 49.26074
1012.781, 47.29395
1013.263, 46.12744
1013.746, 45.44629
1014.228, 45.11230
1014.710, 45.44043
1015.192, 45.10889
1015.674, 43.95605
1016.156, 42.89062
1016.638, 41.67480
1017.120, 41.49951
1017.603, 47.39014
1018.085, 56.96680
1018.567, 61.79834
1019.049, 50.89844
1019.531, 43.14990
1020.013, 44.02734
1020.495, 50.72803
1020.977, 62.82178
1021.459, 80.60693
1021.942, 82.72510
1022.424, 64.49707
1022.906, 45.88428
1023.388, 47.48096
1023.870, 56.64697
1024.352, 60.04541
1024.834, 55.71436
1025.316, 57.38770
1025.799, 69.81299
1026.281, 80.27832
1026.763, 82.22363
1027.245, 80.30176
1027.727, 88.75293
1028.209, 104.2075
1028.691, 115.0889
1029.173, 114.0942
1029.656, 112.0801
1030.138, 111.0747
1030.620, 113.4341
1031.102, 122.6396
1031.584, 140.9780
1032.066, 150.9819
1032.548, 151.1606
1033.030, 153.4287
1033.512, 171.7944
1033.995, 194.9165
1034.477, 207.4902
1034.959, 210.9263
1035.441, 219.1772
1035.923, 245.1382
1036.405, 260.2139
1036.887, 253.7729
1037.369, 239.6050
1037.851, 249.8252
1038.334, 276.4917
1038.816, 287.1958
1039.298, 270.7671
1039.780, 256.1357
1040.262, 266.6650
1040.744, 282.0176
1041.226, 285.4111
1041.708, 275.9624
1042.191, 268.0024
1042.673, 261.3159
1043.155, 257.2695
1043.637, 258.0532
1044.119, 260.5620
1044.601, 260.7339
1045.083, 259.1973
1045.565, 257.4165
1046.047, 258.9331
1046.530, 254.6748
1047.012, 239.8423
1047.494, 225.2090
1047.976, 226.0347
1048.458, 238.1743
1048.940, 240.8550
1049.422, 232.6938
1049.904, 223.3340
1050.386, 220.1138
1050.869, 216.2017
1051.351, 204.5361
1051.833, 188.2495
1052.315, 182.0518
1052.797, 187.7310
1053.279, 188.8643
1053.761, 179.5928
1054.243, 167.7705
1054.726, 163.0811
1055.208, 162.2803
1055.690, 161.1831
1056.172, 159.5332
1056.654, 155.3223
1057.136, 147.6807
1057.618, 138.9976
1058.100, 130.0791
1058.583, 121.3911
1059.065, 115.1343
1059.547, 110.8936
1060.029, 106.6636
1060.511, 101.1455
1060.993, 95.98389
1061.475, 90.74170
1061.957, 86.76562
1062.439, 88.74561
1062.922, 98.12012
1063.404, 102.3745
1063.886, 100.2153
1064.368, 96.20215
1064.850, 95.21582
1065.332, 93.57275
1065.814, 84.56494
1066.296, 69.08350
1066.778, 63.57227
1067.261, 74.62207
1067.743, 83.25195
1068.225, 84.41895
1068.707, 81.49316
1069.189, 77.68945
1069.671, 74.99854
1070.153, 79.62354
1070.635, 95.80811
1071.118, 108.9341
1071.600, 113.1660
1072.082, 111.9746
1072.564, 105.0718
1073.046, 93.45312
1073.528, 90.58545
1074.010, 96.34375
1074.492, 104.0498
1074.974, 109.0459
1075.457, 114.0527
1075.939, 123.6831
1076.421, 135.4551
1076.903, 142.9971
1077.385, 142.7603
1077.867, 147.0156
1078.349, 157.5229
1078.831, 167.9263
1079.313, 169.4736
1079.796, 168.8877
1080.278, 177.6650
1080.760, 194.3315
1081.242, 207.4297
1081.724, 208.6069
1082.206, 212.4688
1082.688, 222.2930
1083.170, 235.7051
1083.652, 250.4272
1084.135, 265.2178
1084.617, 274.2808
1085.099, 276.0078
1085.581, 276.1929
1086.063, 275.5776
1086.545, 277.2715
1087.027, 285.8989
1087.509, 299.8325
1087.992, 299.2617
1088.474, 284.0830
1088.956, 271.0464
1089.438, 267.8608
1089.920, 267.5132
1090.402, 264.5527
1090.884, 258.8359
1091.366, 249.6304
1091.849, 234.1191
1092.331, 222.8003
1092.813, 216.4575
1093.295, 211.6489
1093.777, 207.9727
1094.259, 203.0547
1094.741, 189.1367
1095.223, 169.4292
1095.705, 155.2690
1096.188, 155.1812
1096.670, 155.6777
1097.152, 156.0850
1097.634, 153.8657
1098.116, 144.3438
1098.598, 128.9834
1099.080, 114.3345
1099.562, 100.9692
1100.044, 90.28906
1100.527, 87.02686
1101.009, 82.81836
1101.491, 71.62646
1101.973, 56.27734
1102.455, 45.43945
1102.937, 39.13770
1103.419, 36.65869
1103.901, 38.87305
1104.384, 41.04834
1104.866, 37.10156
1105.348, 31.84082
1105.830, 30.63477
1106.312, 34.73975
1106.794, 36.27100
1107.276, 34.95801
1107.758, 31.69434
1108.240, 25.11377
1108.723, 18.78223
1109.205, 19.82422
1109.687, 24.79883
1110.169, 26.86719
1110.651, 19.64062
1111.133, 18.14404
1111.615, 26.70459
1112.097, 35.30908
1112.579, 33.38086
1113.062, 24.96484
1113.544, 26.88721
1114.026, 36.76709
1114.508, 42.27490
1114.990, 31.24854
1115.472, 22.74463
1115.954, 25.45459
1116.436, 31.56738
1116.919, 31.74219
1117.401, 26.24707
1117.883, 15.08301
1118.365, 1.697754
1118.847, 12.91211
1119.329, 4.920898
1119.811, 6.064453
1120.293, 9.407715
1120.776, 6.782227
1121.258, 3.447754
1121.740, 1.368164
1122.222, 1.748047
1122.704, 17.27051
1123.186, 29.74170
1123.668, 17.13330
1124.150, 3.053223
1124.632, 12.15430
1125.115, 6.816895
1125.597, 1.326172
1126.079, 4.746582
1126.561, 8.977051
1127.043, 10.70410
1127.525, 9.832520
1128.007, 5.023926
1128.489, 1.996582
1128.971, 8.434082
1129.454, 13.66748
1129.936, 17.43164
1130.418, 18.89160
1130.900, 20.41357
1131.382, 25.38818
1131.864, 30.73584
1132.346, 24.36182
1132.828, 10.04297
1133.311, 0.2026370
1133.793, 5.883301
1134.275, 9.358887
1134.757, 5.632324
1135.239, 0.3813480
1135.721, 5.087891
1136.203, 8.124512
1136.685, 5.980957
1137.167, 0.8701170
1137.650, 5.594238
1138.132, 3.585938
1138.614, 0.8984380
1139.096, 9.180664
1139.578, 17.42578
1140.060, 18.49951
1140.542, 12.29199
1141.024, 7.919434
1141.506, 6.440430
1141.989, 6.647461
1142.471, 9.038574
1142.953, 11.61084
1143.435, 13.62012
1143.917, 14.80518
1144.399, 12.67578
1144.881, 6.887207
1145.363, 1.798340
1145.846, 2.774902
1146.328, 1.349121
1146.810, 22.65283
1147.292, 49.01904
1147.774, 52.81885
1148.256, 28.78223
1148.738, 17.39258
1149.220, 22.69092
1149.703, 27.84326
1150.185, 26.36182
1150.667, 23.02686
1151.149, 23.93799
1151.631, 28.23340
1152.113, 35.42432
1152.595, 47.64893
1153.077, 53.88037
1153.559, 50.73779
1154.042, 48.62695
1154.524, 54.73096
1155.006, 64.12842
1155.488, 64.92285
1155.970, 60.14355
1156.452, 57.42090
1156.934, 64.44287
1157.416, 63.17188
1157.898, 46.01807
1158.381, 29.90723
1158.863, 30.51855
1159.345, 42.61865
1159.827, 44.65186
1160.309, 38.72363
1160.791, 33.36475
1161.273, 32.19531
1161.755, 32.41309
1162.238, 33.51953
1162.720, 35.18701
1163.202, 38.14307
1163.684, 41.61279
1164.166, 38.87646
1164.648, 30.61963
1165.130, 26.28516
1165.612, 38.59912
1166.094, 47.35889
1166.577, 40.39844
1167.059, 27.32812
1167.541, 24.49365
1168.023, 30.72363
1168.505, 29.07129
1168.987, 17.77588
1169.469, 8.813477
1169.951, 11.91113
1170.433, 18.58643
1170.916, 26.01904
1171.398, 32.57031
1171.880, 33.12061
1172.362, 27.75488
1172.844, 25.50781
1173.326, 28.46045
1173.808, 31.27930
1174.290, 26.76758
1174.773, 22.54834
1175.255, 26.27246
1175.737, 36.02393
1176.219, 42.46289
1176.701, 45.11719
1177.183, 43.66504
1177.665, 36.39307
1178.147, 28.39502
1178.630, 23.03613
1179.112, 21.12939
1179.594, 25.51514
1180.076, 35.76953
1180.558, 39.40918
1181.040, 35.99512
1181.522, 35.27539
1182.004, 42.24268
1182.486, 48.33398
1182.969, 43.36865
1183.451, 35.25244
1183.933, 34.10498
1184.415, 42.15918
1184.897, 47.04736
1185.379, 48.40820
1185.861, 48.56592
1186.343, 48.07959
1186.825, 47.04688
1187.308, 46.02832
1187.790, 44.72754
1188.272, 42.56348
1188.754, 38.66113
1189.236, 36.34863
1189.718, 36.02832
1190.200, 36.06494
1190.682, 35.74805
1191.165, 34.91113
1191.647, 32.26562
1192.129, 28.65430
1192.611, 25.83057
1193.093, 23.43164
1193.575, 24.09570
1194.057, 28.96094
1194.539, 31.79053
1195.021, 21.44434
1195.504, 9.879883
1195.986, 18.32373
1196.468, 39.75391
1196.950, 52.48096
1197.432, 49.46191
1197.914, 43.62158
1198.396, 34.10840
1198.878, 27.31201
1199.360, 35.72559
1199.843, 46.81641
1200.325, 36.87109
1200.807, 12.18164
1201.289, 2.212402
1201.771, 21.39453
1202.253, 33.97656
1202.735, 35.38916
1203.217, 31.49023
1203.700, 26.06934
1204.182, 21.39258
1204.664, 20.00586
1205.146, 21.64990
1205.628, 27.96533
1206.110, 44.44482
1206.592, 52.16504
1207.074, 45.98682
1207.557, 36.26660
1208.039, 35.28711
1208.521, 39.39160
1209.003, 44.20215
1209.485, 49.11914
1209.967, 52.68018
1210.449, 54.89990
1210.931, 55.36719
1211.413, 53.50977
1211.896, 51.35498
1212.378, 51.71582
1212.860, 53.54590
1213.342, 57.24658
1213.824, 62.84619
1214.306, 59.00684
1214.788, 39.83740
1215.270, 25.73975
1215.752, 22.66992
1216.235, 25.62256
1216.717, 30.84570
1217.199, 35.76123
1217.681, 35.47412
1218.163, 28.82568
1218.645, 26.31104
1219.127, 29.53906
1219.609, 34.58643
1220.092, 41.81543
1220.574, 46.72803
1221.056, 37.88965
1221.538, 24.72461
1222.020, 22.53467
1222.502, 35.94385
1222.984, 39.88770
1223.466, 28.74561
1223.948, 24.24951
1224.431, 37.28467
1224.913, 55.13721
1225.395, 60.47461
1225.877, 57.83691
1226.359, 52.21387
1226.841, 43.05908
1227.323, 37.73779
1227.805, 37.44531
1228.287, 38.01758
1228.770, 37.63477
1229.252, 37.16797
1229.734, 39.04492
1230.216, 41.03418
1230.698, 39.88428
1231.180, 34.53174
1231.662, 28.63281
1232.144, 21.40527
1232.627, 18.27588
1233.109, 24.91895
1233.591, 31.88867
1234.073, 24.58496
1234.555, 12.29785
1235.037, 9.152344
1235.519, 19.33057
1236.001, 18.72852
1236.484, 5.983398
1236.966, 4.616699
1237.448, 4.282715
1237.930, 0.8256840
1238.412, 3.152832
1238.894, 6.931641
1239.376, 5.873047
1239.858, 0.5898440
1240.340, 7.951172
1240.823, 16.06494
1241.305, 23.11865
1241.787, 26.69775
1242.269, 30.51416
1242.751, 42.11328
1243.233, 52.74805
1243.715, 49.88623
1244.197, 31.40088
1244.679, 22.13037
1245.162, 21.89111
1245.644, 23.93994
1246.126, 26.12061
1246.608, 27.70020
1247.090, 28.35352
1247.572, 28.25879
1248.054, 28.50049
1248.536, 29.38232
1249.019, 22.88525
1249.501, 9.769043
1249.983, 0.1508790
1250.465, 3.683594
1250.947, 0.2983400
1251.429, 19.82080
1251.911, 39.40869
1252.393, 39.25146
1252.875, 21.76855
1253.358, 14.34521
1253.840, 15.85889
1254.322, 19.26074
1254.804, 21.42334
1255.286, 24.06201
1255.768, 28.70996
1256.250, 32.99512
1256.732, 33.97705
1257.214, 32.65723
1257.697, 35.75195
1258.179, 42.45996
1258.661, 48.65771
1259.143, 55.03711
1259.625, 56.98389
1260.107, 52.16504
1260.589, 45.92578
1261.071, 41.29639
1261.554, 39.15820
1262.036, 43.97070
1262.518, 53.85156
1263.000, 62.58398
1263.482, 73.30859
1263.964, 72.25879
1264.446, 54.11865
1264.928, 34.31250
1265.411, 26.44971
1265.893, 25.53369
1266.375, 21.66992
1266.857, 16.59082
1267.339, 15.39648
1267.821, 24.82764
1268.303, 27.67041
1268.785, 21.98828
1269.267, 16.06592
1269.750, 18.36230
1270.232, 22.55273
1270.714, 24.09131
1271.196, 23.14014
1271.678, 21.47021
1272.160, 19.29346
1272.642, 19.13770
1273.124, 21.11572
1273.606, 22.41602
1274.089, 18.59277
1274.571, 15.34180
1275.053, 18.87207
1275.535, 26.09766
1276.017, 31.95020
1276.499, 36.51904
1276.981, 34.79395
1277.463, 29.24316
1277.946, 25.01660
1278.428, 28.88379
1278.910, 30.77295
1279.392, 21.16016
1279.874, 8.425781
1280.356, 2.874023
1280.838, 4.421387
1281.320, 2.012207
1281.802, 3.750000
1282.285, 6.654297
1282.767, 1.328613
1283.249, 4.896484
1283.731, 10.06738
1284.213, 14.16162
1284.695, 16.86230
1285.177, 18.33105
1285.659, 18.98340
1286.141, 19.17920
1286.624, 20.53662
1287.106, 28.03027
1287.588, 29.62793
1288.070, 21.25439
1288.552, 12.41846
1289.034, 12.29688
1289.516, 16.90820
1289.998, 17.04297
1290.481, 14.47461
1290.963, 13.62988
1291.445, 18.20752
1291.927, 19.95654
1292.409, 18.26318
1292.891, 12.39990
1293.373, 12.39941
1293.855, 13.26709
1294.338, 10.65430
1294.820, 6.155762
1295.302, 2.492676
1295.784, 1.364258
1296.266, 1.062988
1296.748, 10.16797
1297.230, 18.21729
1297.712, 18.52246
1298.194, 18.30957
1298.677, 26.34521
1299.159, 34.45947
1299.641, 31.38379
1300.123, 17.38477
1300.605, 10.17334
1301.087, 9.169434
1301.569, 9.363281
1302.051, 10.41699
1302.533, 8.106445
1303.016, 0.0000000E+00
##END=



