##NAMES=Lefontite
##RRUFFID=R140539
##IDEAL CHEMISTRY=Fe^2+^_2_Al_2_Be(PO_4_)_2_(OH)_6_
##LOCALITY=Palermo No. 1 mine, Groton, New Hampshire, USA
##OWNER=RRUFF
##SOURCE=Benjamin N. Schumer
##DESCRIPTION=Dark or reddish brown prismatic crystals, associated with grey bladed eosphorite, colorless or white prismatic palermoite (R120141), and natropalermoite (130092).
##STATUS=The identification of this mineral is confirmed by single-crystal X-ray diffraction and chemical analysis.
##URL=rruff.info/R140539
##MEASURED CHEMISTRY=(Fe^2+^_1.22_Mn_0.48_Ca_0.16_Mg_0.05_)_Î£=1.91_Al_1.91_Be_0.97_(PO_4_)_2_(OH)_6.50_ ; Be2+ needs to be analyzed by Icp-ms
93.97052, 0.0000000E+00
94.45264, 4.041016
94.93475, 5.617249
95.41687, 6.474121
95.89898, 7.159058
96.38110, 7.764343
96.86321, 8.320679
97.34533, 9.610474
97.82745, 10.63330
98.30956, 10.42389
98.79168, 11.30719
99.27380, 11.08228
99.75591, 8.418945
100.2380, 4.106079
100.7201, 0.4471440
101.2023, 0.8989870
101.6844, 0.2019650
102.1665, 0.6426390
102.6486, 1.493713
103.1307, 2.479431
103.6128, 3.558716
104.0950, 4.611023
104.5771, 5.642212
105.0592, 6.368774
105.5413, 6.980652
106.0234, 7.806580
106.5055, 9.084595
106.9877, 10.58563
107.4698, 11.14874
107.9519, 9.785828
108.4340, 8.561829
108.9161, 8.145630
109.3982, 8.450317
109.8804, 9.347168
110.3625, 10.66107
110.8446, 12.58679
111.3267, 13.81537
111.8088, 13.56470
112.2909, 13.24823
112.7731, 13.59045
113.2552, 14.68457
113.7373, 16.08350
114.2194, 17.21503
114.7015, 17.92712
115.1836, 18.48712
115.6658, 19.21423
116.1479, 19.76001
116.6300, 19.61310
117.1121, 18.67957
117.5942, 17.44434
118.0763, 17.43201
118.5584, 19.24872
119.0406, 20.81427
119.5227, 21.38013
120.0048, 21.24506
120.4869, 21.22437
120.9690, 21.90198
121.4511, 23.08136
121.9333, 24.53351
122.4154, 26.25897
122.8975, 28.68976
123.3796, 31.20670
123.8617, 34.01193
124.3438, 36.15381
124.8260, 35.52005
125.3081, 33.80011
125.7902, 32.53094
126.2723, 32.54446
126.7544, 33.34976
127.2365, 33.56223
127.7187, 32.71414
128.2008, 31.97354
128.6829, 31.86435
129.1650, 32.00476
129.6471, 31.93604
130.1292, 31.43704
130.6114, 30.53616
131.0935, 29.41913
131.5756, 27.70972
132.0577, 26.10568
132.5398, 24.80161
133.0219, 23.76355
133.5041, 22.85233
133.9862, 21.88181
134.4683, 20.78500
134.9504, 20.11609
135.4325, 20.42993
135.9146, 20.64673
136.3968, 19.93793
136.8789, 18.28989
137.3610, 16.50101
137.8431, 15.61063
138.3252, 15.90820
138.8073, 15.48251
139.2895, 13.60974
139.7716, 11.21536
140.2537, 9.420013
140.7358, 8.561676
141.2179, 8.007294
141.7000, 6.841492
142.1821, 5.117706
142.6643, 3.643829
143.1464, 2.842560
143.6285, 2.580994
144.1106, 2.388123
144.5927, 2.248077
145.0748, 2.050476
145.5570, 1.759583
146.0391, 1.372681
146.5212, 0.7875980
147.0033, 0.2249150
147.4854, 1.741547
147.9675, 2.963959
148.4497, 3.621948
148.9318, 4.011780
149.4139, 4.122070
149.8960, 3.983337
150.3781, 3.909424
150.8602, 4.468201
151.3424, 6.230164
151.8245, 6.402069
152.3066, 5.336578
152.7887, 3.984863
153.2708, 3.158478
153.7529, 3.147644
154.2351, 3.584686
154.7172, 3.546448
155.1993, 2.487152
155.6814, 1.559174
156.1635, 0.9298100
156.6456, 0.4158020
157.1278, 0.2553410
157.6099, 1.230042
158.0920, 2.363403
158.5741, 3.075714
159.0562, 3.001862
159.5383, 3.000580
160.0205, 3.210876
160.5026, 3.595734
160.9847, 4.102783
161.4668, 4.737671
161.9489, 5.460205
162.4310, 6.087738
162.9131, 6.374664
163.3953, 6.796967
163.8774, 7.769684
164.3595, 9.236572
164.8416, 10.61942
165.3237, 11.55057
165.8058, 12.12042
166.2880, 12.60773
166.7701, 13.10037
167.2522, 13.48169
167.7343, 13.48557
168.2164, 12.98660
168.6985, 12.73126
169.1807, 13.18573
169.6628, 14.12469
170.1449, 15.42480
170.6270, 17.32831
171.1091, 19.40378
171.5912, 20.57837
172.0734, 20.42270
172.5555, 20.09784
173.0376, 20.01468
173.5197, 20.08932
174.0018, 20.17136
174.4839, 20.10873
174.9661, 19.98520
175.4482, 20.38058
175.9303, 22.07190
176.4124, 23.44165
176.8945, 23.81625
177.3766, 23.57593
177.8588, 23.41498
178.3409, 23.85095
178.8230, 24.88785
179.3051, 25.83786
179.7872, 26.66794
180.2693, 27.44949
180.7515, 28.17697
181.2336, 28.87064
181.7157, 29.57538
182.1978, 30.33856
182.6799, 31.17627
183.1620, 31.77182
183.6441, 32.09613
184.1263, 32.27560
184.6084, 32.25845
185.0905, 32.10333
185.5726, 32.01675
186.0547, 32.17975
186.5368, 32.62970
187.0190, 33.31757
187.5011, 34.73627
187.9832, 36.03848
188.4653, 36.44888
188.9474, 35.91464
189.4296, 35.19879
189.9117, 35.06876
190.3938, 35.51450
190.8759, 35.79648
191.3580, 35.61652
191.8401, 35.33994
192.3223, 35.50247
192.8044, 36.26389
193.2865, 36.95114
193.7686, 36.60120
194.2507, 35.54840
194.7328, 34.85025
195.2150, 35.03189
195.6971, 35.75369
196.1792, 36.40082
196.6613, 36.99283
197.1434, 37.30670
197.6255, 37.08142
198.1077, 36.46378
198.5898, 35.82047
199.0719, 35.31055
199.5540, 34.91104
200.0361, 34.55435
200.5182, 34.24121
201.0004, 33.98480
201.4825, 33.85376
201.9646, 33.79486
202.4467, 33.67374
202.9288, 33.31882
203.4109, 32.75320
203.8930, 32.44098
204.3752, 32.59195
204.8573, 32.75546
205.3394, 32.98535
205.8215, 33.11127
206.3036, 32.73969
206.7857, 31.33072
207.2679, 28.80493
207.7500, 27.18442
208.2321, 27.85236
208.7142, 28.15656
209.1963, 26.78488
209.6784, 24.26227
210.1606, 21.97437
210.6427, 21.16068
211.1248, 21.98260
211.6069, 22.49451
212.0890, 22.59131
212.5711, 22.48730
213.0533, 22.25037
213.5354, 21.91669
214.0175, 21.52814
214.4996, 21.09012
214.9817, 20.53696
215.4638, 20.52667
215.9460, 21.65515
216.4281, 22.65939
216.9102, 22.79276
217.3923, 22.14157
217.8744, 21.33276
218.3565, 20.92267
218.8387, 20.96643
219.3208, 21.07101
219.8029, 21.44064
220.2850, 21.69733
220.7671, 21.47812
221.2492, 20.83365
221.7314, 20.24667
222.2135, 20.17566
222.6956, 20.65851
223.1777, 20.87891
223.6598, 20.48145
224.1419, 20.07324
224.6240, 20.21902
225.1062, 20.91980
225.5883, 21.59650
226.0704, 21.76053
226.5525, 21.45251
227.0346, 21.17538
227.5167, 20.98718
227.9989, 20.83014
228.4810, 20.70767
228.9631, 20.62686
229.4452, 20.41534
229.9273, 19.81177
230.4094, 18.97678
230.8916, 18.35864
231.3737, 18.20291
231.8558, 18.20438
232.3379, 17.99326
232.8200, 17.53516
233.3021, 17.10428
233.7843, 16.81958
234.2664, 16.69089
234.7485, 16.78333
235.2306, 17.29129
235.7127, 17.87387
236.1948, 18.03329
236.6770, 17.68622
237.1591, 17.26929
237.6412, 17.02112
238.1233, 16.82224
238.6054, 16.53302
239.0875, 16.09708
239.5697, 15.57120
240.0518, 15.00760
240.5339, 14.34567
241.0160, 13.83801
241.4981, 13.66843
241.9802, 13.65414
242.4624, 13.63290
242.9445, 13.54517
243.4266, 13.44327
243.9087, 13.45255
244.3908, 13.66702
244.8729, 13.72769
245.3550, 13.20349
245.8372, 12.65970
246.3193, 12.71042
246.8014, 13.59442
247.2835, 14.74069
247.7656, 15.15439
248.2477, 14.59857
248.7299, 13.82681
249.2120, 12.55017
249.6941, 11.38400
250.1762, 10.90292
250.6583, 11.26590
251.1404, 12.03745
251.6226, 12.52695
252.1047, 12.71918
252.5868, 12.63025
253.0689, 12.01477
253.5510, 11.33319
254.0331, 10.88269
254.5153, 10.74887
254.9974, 10.84863
255.4795, 11.06055
255.9616, 11.38599
256.4437, 11.84381
256.9258, 12.67700
257.4080, 13.44818
257.8901, 13.85358
258.3722, 13.84888
258.8543, 13.61752
259.3364, 13.39319
259.8185, 13.17276
260.3007, 12.96820
260.7828, 12.59888
261.2649, 12.36996
261.7470, 12.49036
262.2291, 12.96716
262.7112, 13.67914
263.1934, 14.56198
263.6755, 15.85586
264.1576, 16.36447
264.6397, 15.15161
265.1218, 14.08728
265.6039, 14.44318
266.0861, 16.08725
266.5682, 17.87875
267.0503, 18.64288
267.5324, 18.10608
268.0145, 18.31097
268.4966, 19.74252
268.9788, 21.30963
269.4609, 22.65448
269.9430, 23.68555
270.4251, 24.28885
270.9072, 24.28638
271.3893, 23.64163
271.8715, 23.57855
272.3536, 24.68124
272.8357, 25.66324
273.3178, 25.73737
273.7999, 25.19757
274.2820, 24.99432
274.7642, 25.88101
275.2463, 27.70059
275.7284, 28.36642
276.2105, 26.78940
276.6926, 25.52301
277.1747, 25.60345
277.6568, 26.64493
278.1389, 27.80069
278.6211, 28.66531
279.1032, 29.22256
279.5853, 29.34421
280.0674, 28.51822
280.5495, 27.93912
281.0316, 28.10275
281.5138, 28.68973
281.9959, 29.11649
282.4780, 29.11636
282.9601, 28.89395
283.4422, 28.95050
283.9243, 29.49780
284.4065, 29.89465
284.8886, 29.87732
285.3707, 29.66782
285.8528, 29.56601
286.3349, 29.66571
286.8170, 29.95258
287.2992, 30.42181
287.7813, 31.08401
288.2634, 31.82147
288.7455, 32.72623
289.2276, 33.64178
289.7097, 34.32315
290.1919, 34.70276
290.6740, 35.03845
291.1561, 35.72260
291.6382, 36.85672
292.1203, 37.63840
292.6024, 37.62225
293.0846, 37.37787
293.5667, 37.50586
294.0488, 38.06409
294.5309, 38.61615
295.0130, 38.65234
295.4951, 38.21576
295.9773, 38.43192
296.4594, 39.99930
296.9415, 41.67206
297.4236, 42.41483
297.9057, 42.26465
298.3878, 42.02774
298.8700, 42.30338
299.3521, 42.90176
299.8342, 42.94214
300.3163, 42.00433
300.7984, 41.05524
301.2805, 40.61951
301.7627, 40.64786
302.2448, 40.93600
302.7269, 41.53134
303.2090, 42.18771
303.6911, 42.18204
304.1732, 41.06866
304.6554, 40.10059
305.1375, 40.02618
305.6196, 40.53827
306.1017, 40.84247
306.5838, 40.63321
307.0659, 40.09692
307.5481, 39.51944
308.0302, 38.80984
308.5123, 38.36438
308.9944, 38.71237
309.4765, 39.32889
309.9586, 39.17834
310.4408, 37.88852
310.9229, 36.28006
311.4050, 35.51996
311.8871, 35.61871
312.3692, 35.59818
312.8513, 35.22189
313.3335, 34.64697
313.8156, 34.01028
314.2977, 33.32791
314.7798, 32.69092
315.2619, 32.27225
315.7440, 32.02728
316.2262, 31.43109
316.7083, 30.10968
317.1904, 28.65384
317.6725, 27.56027
318.1546, 26.82462
318.6367, 26.16373
319.1188, 25.36148
319.6010, 24.49414
320.0831, 23.86066
320.5652, 23.70020
321.0473, 23.52475
321.5294, 23.08380
322.0115, 22.41138
322.4937, 21.60361
322.9758, 20.70026
323.4579, 19.70029
323.9400, 18.59695
324.4221, 17.22971
324.9042, 16.09729
325.3864, 15.46436
325.8685, 15.17154
326.3506, 15.00253
326.8327, 14.95764
327.3148, 14.76108
327.7969, 13.81375
328.2791, 11.94717
328.7612, 10.45898
329.2433, 9.765808
329.7254, 9.497986
330.2075, 9.382874
330.6896, 9.374023
331.1718, 9.104523
331.6539, 8.037811
332.1360, 6.099426
332.6181, 4.787598
333.1002, 4.584595
333.5823, 4.700714
334.0645, 4.593658
334.5466, 4.254730
335.0287, 3.926971
335.5108, 3.852020
335.9929, 3.925476
336.4750, 3.482086
336.9572, 1.710815
337.4393, 0.3152770
337.9214, 0.3793330
338.4035, 1.375397
338.8856, 2.017212
339.3677, 1.672638
339.8499, 0.6995540
340.3320, 5.6885000E-02
340.8141, 0.1028140
341.2962, 0.2684630
341.7783, 0.5533750
342.2604, 0.8880920
342.7426, 1.154236
343.2247, 1.314972
343.7068, 1.486267
344.1889, 1.844116
344.6710, 2.498749
345.1531, 3.013977
345.6353, 3.328308
346.1174, 3.536194
346.5995, 3.693787
347.0816, 3.809662
347.5637, 3.877533
348.0458, 3.862183
348.5280, 3.754181
349.0101, 3.853973
349.4922, 4.479614
349.9743, 4.958923
350.4564, 4.988678
350.9385, 4.639801
351.4207, 4.052399
351.9028, 3.266998
352.3849, 2.393768
352.8670, 1.920044
353.3491, 2.417511
353.8312, 2.602905
354.3134, 2.059021
354.7955, 1.225616
355.2776, 0.7273560
355.7597, 0.7626950
356.2418, 0.8440550
356.7239, 7.4982002E-02
357.2061, 2.445190
357.6882, 3.943573
358.1703, 3.748444
358.6524, 3.137512
359.1345, 2.747375
359.6166, 2.763275
360.0987, 3.306763
360.5808, 4.577148
361.0630, 6.687439
361.5451, 8.420624
362.0272, 9.590393
362.5093, 10.60126
362.9914, 11.41116
363.4735, 12.17627
363.9557, 13.15884
364.4378, 14.53522
364.9199, 16.20438
365.4020, 17.72897
365.8841, 18.92145
366.3662, 20.22763
366.8484, 21.96417
367.3305, 23.69870
367.8126, 24.81519
368.2947, 25.17029
368.7768, 25.45535
369.2589, 26.87756
369.7411, 30.04242
370.2232, 32.69348
370.7053, 34.50647
371.1874, 36.03885
371.6695, 37.50479
372.1516, 38.95255
372.6338, 40.42038
373.1159, 41.96634
373.5980, 43.58032
374.0801, 44.99966
374.5622, 45.85208
375.0443, 46.98495
375.5265, 48.94183
376.0086, 51.28500
376.4907, 53.31192
376.9728, 54.65903
377.4549, 55.58139
377.9370, 56.61819
378.4192, 57.76370
378.9013, 59.04642
379.3834, 60.61093
379.8655, 62.23288
380.3476, 63.75082
380.8297, 65.13254
381.3119, 66.43024
381.7940, 67.72287
382.2761, 69.00989
382.7582, 70.07718
383.2403, 70.66971
383.7224, 71.31256
384.2046, 72.51016
384.6867, 74.08713
385.1688, 75.42938
385.6509, 76.10831
386.1330, 76.33078
386.6151, 76.56238
387.0973, 76.82397
387.5794, 77.01093
388.0615, 76.91339
388.5436, 76.74130
389.0257, 76.81158
389.5078, 77.24048
389.9900, 77.81522
390.4721, 78.40826
390.9542, 79.01035
391.4363, 79.52371
391.9184, 79.96796
392.4005, 80.22964
392.8827, 80.03473
393.3648, 79.32651
393.8469, 78.92517
394.3290, 79.61981
394.8111, 80.66528
395.2932, 80.73157
395.7754, 79.56088
396.2575, 78.22375
396.7396, 77.53940
397.2217, 77.52985
397.7038, 77.93170
398.1859, 79.14557
398.6681, 80.39261
399.1501, 81.13394
399.6323, 81.45261
400.1144, 81.71094
400.5965, 82.09201
401.0786, 82.54193
401.5607, 82.87488
402.0428, 82.98520
402.5250, 83.12543
403.0071, 83.30536
403.4892, 83.57968
403.9713, 84.09457
404.4534, 84.85712
404.9355, 85.56973
405.4177, 85.83551
405.8998, 85.48996
406.3819, 85.57034
406.8640, 86.31491
407.3461, 87.14020
407.8282, 87.81903
408.3104, 88.39465
408.7925, 88.96951
409.2746, 89.60187
409.7567, 90.34082
410.2388, 91.38669
410.7209, 93.22888
411.2031, 94.61856
411.6852, 95.26123
412.1673, 95.58932
412.6494, 95.87039
413.1315, 96.20395
413.6136, 96.74417
414.0958, 97.85324
414.5779, 99.86713
415.0600, 101.4226
415.5421, 101.8105
416.0242, 102.2243
416.5063, 103.2732
416.9885, 104.7382
417.4706, 105.9966
417.9527, 106.6150
418.4348, 106.7862
418.9169, 107.1528
419.3990, 107.7334
419.8812, 108.4573
420.3633, 109.7278
420.8454, 110.8958
421.3275, 111.1974
421.8096, 110.4279
422.2917, 109.4469
422.7739, 109.3207
423.2560, 109.9794
423.7381, 109.9377
424.2202, 108.6397
424.7023, 107.0336
425.1844, 105.8374
425.6666, 104.9591
426.1487, 104.0602
426.6308, 102.9247
427.1129, 101.7181
427.5950, 100.7700
428.0771, 100.0990
428.5593, 99.28210
429.0414, 98.12149
429.5235, 96.64243
430.0056, 94.97647
430.4877, 93.06369
430.9698, 91.10486
431.4520, 89.27460
431.9341, 87.46921
432.4162, 85.42786
432.8983, 83.07837
433.3804, 80.62027
433.8625, 78.23264
434.3447, 75.90948
434.8268, 73.86798
435.3089, 72.55429
435.7910, 71.14923
436.2731, 68.96585
436.7552, 66.18927
437.2374, 63.52582
437.7195, 61.39999
438.2016, 59.66888
438.6837, 57.83066
439.1658, 55.86069
439.6479, 53.80435
440.1301, 51.64987
440.6122, 49.42715
441.0943, 47.11133
441.5764, 44.74069
442.0585, 42.45596
442.5406, 40.42480
443.0227, 38.64218
443.5049, 37.12183
443.9870, 36.34897
444.4691, 35.34183
444.9512, 33.56494
445.4333, 31.40433
445.9154, 29.51770
446.3976, 28.28320
446.8797, 27.37469
447.3618, 26.02570
447.8439, 24.03342
448.3260, 22.20667
448.8081, 20.60251
449.2903, 19.26880
449.7724, 18.44556
450.2545, 18.04807
450.7366, 17.47479
451.2187, 15.93060
451.7008, 13.76140
452.1830, 12.61908
452.6651, 12.90834
453.1472, 13.29820
453.6293, 13.07727
454.1114, 12.44148
454.5935, 11.57448
455.0757, 10.38583
455.5578, 9.230957
456.0399, 8.444717
456.5220, 7.956680
457.0041, 7.425690
457.4862, 6.722168
457.9684, 6.013519
458.4505, 5.528732
458.9326, 5.259613
459.4147, 5.055298
459.8968, 5.066406
460.3789, 5.009125
460.8611, 4.475723
461.3432, 3.567947
461.8253, 2.925186
462.3074, 3.006180
462.7895, 3.580490
463.2716, 3.675262
463.7538, 2.880722
464.2359, 2.180237
464.7180, 1.669800
465.2001, 1.304703
465.6822, 1.126236
466.1643, 1.096939
466.6465, 0.9892270
467.1286, 0.5146940
467.6107, 0.4016720
468.0928, 1.025513
468.5749, 1.288132
469.0570, 1.324539
469.5392, 1.012970
470.0213, 0.5359950
470.5034, 0.1275790
470.9855, 0.1118770
471.4676, 0.2059330
471.9497, 0.1449130
472.4319, 0.1405180
472.9140, 0.2706300
473.3961, 4.9102999E-02
473.8782, 0.2469330
474.3603, 0.4434360
474.8424, 0.5509190
475.3246, 0.6825870
475.8067, 0.9538880
476.2888, 1.284546
476.7709, 1.449722
477.2530, 1.408600
477.7351, 1.452774
478.2173, 1.764694
478.6994, 2.258591
479.1815, 2.799149
479.6636, 3.402710
480.1457, 3.921127
480.6278, 4.058334
481.1100, 4.082733
481.5920, 4.582947
482.0742, 5.686142
482.5563, 6.842163
483.0384, 7.481537
483.5205, 7.619339
484.0026, 8.235718
484.4847, 9.864182
484.9669, 11.37537
485.4490, 12.22153
485.9311, 12.65877
486.4132, 13.11259
486.8953, 13.75005
487.3774, 14.53172
487.8596, 15.38319
488.3417, 16.38141
488.8238, 17.25427
489.3059, 17.87901
489.7880, 18.48744
490.2701, 19.09225
490.7523, 19.77878
491.2344, 20.75081
491.7165, 22.19516
492.1986, 23.85745
492.6807, 25.01155
493.1628, 25.53862
493.6450, 25.88255
494.1271, 25.72865
494.6092, 25.71664
495.0913, 26.50897
495.5734, 28.02652
496.0555, 29.31715
496.5377, 29.40320
497.0198, 28.78386
497.5019, 28.93422
497.9840, 30.05672
498.4661, 31.12617
498.9482, 31.56470
499.4304, 31.58995
499.9125, 31.63940
500.3946, 31.75032
500.8767, 31.84744
501.3588, 31.72244
501.8409, 31.60199
502.3231, 32.07547
502.8052, 33.27429
503.2873, 34.30159
503.7694, 34.18965
504.2515, 32.88208
504.7336, 32.24820
505.2158, 32.82808
505.6979, 33.39728
506.1800, 33.58214
506.6621, 33.45781
507.1442, 33.13818
507.6263, 32.67081
508.1085, 32.09988
508.5906, 31.47620
509.0727, 30.74426
509.5548, 30.15475
510.0369, 29.97890
510.5190, 29.67426
511.0012, 28.87996
511.4833, 27.82198
511.9654, 26.96082
512.4475, 26.55376
512.9296, 26.35294
513.4117, 25.95830
513.8939, 25.37366
514.3760, 24.52696
514.8581, 23.18272
515.3402, 21.78018
515.8223, 20.72552
516.3044, 19.97173
516.7866, 19.18210
517.2687, 18.09134
517.7508, 16.95453
518.2329, 16.10576
518.7150, 15.53644
519.1971, 15.09264
519.6793, 14.77594
520.1614, 14.45218
520.6435, 13.77371
521.1256, 12.58441
521.6077, 11.56012
522.0898, 11.09758
522.5720, 10.65170
523.0541, 9.541565
523.5362, 7.899872
524.0183, 6.558395
524.5004, 6.165741
524.9825, 6.517990
525.4647, 6.544159
525.9468, 6.087494
526.4289, 5.495453
526.9110, 4.623764
527.3931, 3.769287
527.8752, 3.203186
528.3574, 2.928589
528.8395, 2.728821
529.3216, 2.441574
529.8037, 2.070633
530.2858, 1.591568
530.7679, 0.9039000
531.2501, 0.3525700
531.7322, 0.1851960
532.2143, 0.1814580
532.6964, 0.1085360
533.1785, 8.2748003E-02
533.6606, 0.2346040
534.1428, 0.1173860
534.6249, 8.7279998E-02
535.1070, 6.4621001E-02
535.5891, 0.6506810
536.0712, 1.330109
536.5533, 1.917328
537.0355, 2.376831
537.5176, 2.534988
537.9997, 2.049622
538.4818, 1.710739
538.9639, 1.907867
539.4460, 2.298355
539.9282, 2.441605
540.4103, 2.255386
540.8924, 1.966949
541.3745, 1.807800
541.8566, 1.781204
542.3387, 1.763626
542.8209, 2.003662
543.3029, 1.936768
543.7850, 1.080017
544.2672, 3.6453001E-02
544.7493, 0.4328310
545.2314, 0.1489410
545.7135, 0.2841800
546.1956, 0.1451720
546.6777, 0.5048370
547.1599, 0.9087980
547.6420, 0.8864440
548.1241, 0.9170530
548.6062, 1.393417
549.0883, 2.101425
549.5704, 2.732483
550.0526, 3.295563
550.5347, 3.645966
551.0168, 3.484512
551.4989, 3.081573
551.9810, 2.933456
552.4631, 3.138489
552.9453, 3.821442
553.4274, 5.291901
553.9095, 7.555786
554.3916, 8.733215
554.8737, 7.725067
555.3558, 7.114670
555.8380, 8.153748
556.3201, 9.734375
556.8022, 10.34801
557.2843, 9.673828
557.7664, 8.685394
558.2485, 8.494781
558.7307, 9.129440
559.2128, 9.830978
559.6949, 10.69194
560.1770, 11.47922
560.6591, 12.13538
561.1412, 12.67685
561.6234, 13.10338
562.1055, 13.40587
562.5876, 13.68869
563.0697, 14.09851
563.5518, 14.56592
564.0339, 14.80183
564.5161, 14.71817
564.9982, 14.67532
565.4803, 14.87274
565.9624, 15.33960
566.4445, 16.10960
566.9266, 17.66486
567.4088, 18.83722
567.8909, 18.94162
568.3730, 18.57874
568.8551, 18.57143
569.3372, 19.02316
569.8193, 19.34650
570.3015, 18.90251
570.7836, 17.76794
571.2657, 17.50688
571.7478, 19.12311
572.2299, 20.27675
572.7120, 20.25037
573.1942, 19.84723
573.6763, 19.80585
574.1584, 20.24049
574.6405, 20.79793
575.1226, 21.18698
575.6047, 21.44453
576.0869, 21.70099
576.5690, 21.93063
577.0511, 22.27528
577.5332, 22.92192
578.0153, 23.65279
578.4974, 24.07857
578.9796, 24.10201
579.4617, 24.23479
579.9438, 24.78726
580.4259, 25.48064
580.9080, 25.89153
581.3901, 26.06592
581.8723, 26.50560
582.3544, 27.56204
582.8365, 29.05276
583.3186, 30.35362
583.8007, 31.22607
584.2828, 32.28123
584.7650, 33.52579
585.2471, 34.95175
585.7292, 36.68027
586.2113, 38.59842
586.6934, 40.36317
587.1755, 41.67509
587.6577, 42.85759
588.1398, 44.67438
588.6219, 47.20026
589.1040, 49.86230
589.5861, 52.63423
590.0682, 55.42035
590.5504, 57.97678
591.0325, 60.37253
591.5146, 63.11148
591.9967, 66.89839
592.4788, 70.64507
592.9609, 73.06810
593.4431, 74.58214
593.9252, 76.54834
594.4073, 79.47086
594.8894, 82.91341
595.3715, 86.36407
595.8536, 89.99139
596.3358, 93.06528
596.8179, 94.99458
597.3000, 97.03445
597.7821, 99.84592
598.2642, 103.0188
598.7463, 105.8968
599.2285, 108.2563
599.7106, 110.4470
600.1927, 113.0232
600.6748, 115.9474
601.1569, 118.4301
601.6390, 120.5614
602.1212, 122.1206
602.6033, 122.5154
603.0854, 122.2887
603.5675, 122.3741
604.0496, 123.1939
604.5317, 123.5541
605.0139, 122.3197
605.4960, 120.4320
605.9781, 119.5442
606.4602, 119.7285
606.9423, 119.5022
607.4244, 117.7451
607.9066, 114.7921
608.3887, 112.1181
608.8708, 109.8564
609.3529, 107.7243
609.8350, 106.0663
610.3171, 104.2460
610.7993, 101.7116
611.2814, 98.58051
611.7635, 95.37723
612.2456, 92.41379
612.7277, 89.63231
613.2098, 86.84915
613.6920, 84.05640
614.1741, 81.26479
614.6562, 78.40904
615.1383, 75.59229
615.6204, 72.81723
616.1025, 70.11644
616.5847, 67.79042
617.0668, 66.37320
617.5489, 64.88089
618.0310, 62.49638
618.5131, 59.61783
618.9952, 57.03828
619.4774, 54.98901
619.9595, 53.21060
620.4416, 51.41753
620.9237, 49.59691
621.4058, 47.94563
621.8879, 46.53508
622.3701, 45.24742
622.8522, 44.31999
623.3343, 43.31737
623.8164, 41.59741
624.2985, 39.15701
624.7806, 37.01651
625.2628, 36.34567
625.7448, 36.49901
626.2269, 35.83067
626.7090, 34.27206
627.1912, 32.49138
627.6733, 30.60393
628.1554, 28.83928
628.6375, 27.66399
629.1196, 27.12561
629.6017, 26.77542
630.0839, 26.79420
630.5660, 26.75755
631.0481, 26.30032
631.5302, 25.54866
632.0123, 24.82387
632.4944, 24.27722
632.9766, 23.84131
633.4587, 23.39555
633.9408, 22.91055
634.4229, 22.56207
634.9050, 22.50436
635.3871, 22.38748
635.8693, 21.95946
636.3514, 21.41492
636.8335, 21.09528
637.3156, 21.14833
637.7977, 21.13210
638.2798, 20.64748
638.7620, 19.90829
639.2441, 19.30191
639.7262, 18.87560
640.2083, 18.48886
640.6904, 18.04175
641.1725, 17.57761
641.6547, 17.23383
642.1368, 16.97040
642.6189, 16.90767
643.1010, 17.34143
643.5831, 17.71252
644.0652, 17.57579
644.5474, 17.07779
645.0295, 16.68422
645.5116, 16.67259
645.9937, 16.72905
646.4758, 16.23796
646.9579, 15.20631
647.4401, 14.49664
647.9222, 14.33127
648.4043, 14.31497
648.8864, 14.21715
649.3685, 14.03076
649.8506, 13.73828
650.3328, 13.26196
650.8149, 12.79976
651.2970, 12.47179
651.7791, 12.18036
652.2612, 11.77719
652.7433, 11.27271
653.2255, 10.84155
653.7076, 10.62909
654.1897, 10.55562
654.6718, 10.29440
655.1539, 9.709290
655.6360, 9.268906
656.1182, 9.174835
656.6003, 9.122971
657.0824, 8.988174
657.5645, 8.757339
658.0466, 8.417450
658.5287, 7.899597
659.0109, 7.367737
659.4930, 7.018753
659.9751, 6.779190
660.4572, 6.404160
660.9393, 5.838791
661.4214, 5.275726
661.9036, 4.864212
662.3857, 4.603851
662.8678, 4.498581
663.3499, 4.837708
663.8320, 4.950348
664.3141, 4.849014
664.7963, 4.447968
665.2784, 3.409775
665.7605, 1.961411
666.2426, 0.8779140
666.7247, 0.6818540
667.2068, 1.036758
667.6890, 1.520920
668.1711, 2.116379
668.6532, 2.081841
669.1353, 1.028313
669.6174, 0.1480410
670.0995, 0.5520710
670.5817, 0.2613600
671.0638, 0.1660840
671.5459, 0.5209660
672.0280, 0.7769930
672.5101, 0.6588750
672.9922, 0.4111630
673.4744, 0.3013920
673.9565, 0.3555300
674.4386, 0.4418030
674.9207, 0.4600300
675.4028, 0.4390560
675.8849, 0.4948580
676.3671, 0.6662750
676.8492, 0.7337720
677.3313, 0.5681690
677.8134, 0.3859710
678.2955, 0.3286210
678.7776, 0.3907700
679.2598, 0.5692900
679.7419, 1.065155
680.2240, 1.417488
680.7061, 1.177483
681.1882, 0.6852570
681.6703, 0.5925600
682.1525, 0.9456410
682.6346, 1.095383
683.1167, 0.4393010
683.5988, 0.7757110
684.0809, 1.289543
684.5630, 0.7237930
685.0452, 0.2840040
685.5273, 0.1405330
686.0094, 0.1576390
686.4915, 0.2821810
686.9736, 0.5156940
687.4557, 0.8681410
687.9379, 1.446541
688.4200, 1.974884
688.9021, 2.203026
689.3842, 2.197182
689.8663, 2.020607
690.3484, 1.692001
690.8306, 1.494591
691.3127, 1.685150
691.7948, 2.160614
692.2769, 2.389702
692.7590, 2.158546
693.2411, 2.020630
693.7233, 2.088882
694.2054, 2.184639
694.6875, 2.116272
695.1696, 1.980469
695.6517, 2.057312
696.1339, 2.510353
696.6160, 3.075699
697.0981, 3.522606
697.5802, 3.844643
698.0623, 3.974411
698.5444, 3.889954
699.0266, 3.805573
699.5087, 3.898537
699.9908, 4.094955
700.4729, 4.103119
700.9550, 3.387733
701.4371, 3.364197
701.9193, 4.872345
702.4014, 6.259781
702.8835, 6.350594
703.3656, 5.574142
703.8477, 4.972641
704.3298, 5.002388
704.8120, 5.289284
705.2941, 5.355064
705.7762, 5.275970
706.2583, 5.450912
706.7404, 5.945808
707.2225, 6.525780
707.7046, 7.157784
708.1867, 7.699341
708.6688, 7.742203
709.1509, 6.991806
709.6331, 6.540398
710.1152, 6.665871
710.5973, 6.902977
711.0794, 6.980507
711.5615, 6.969353
712.0436, 7.069771
712.5258, 7.345764
713.0079, 7.586334
713.4900, 7.534760
713.9721, 7.239037
714.4542, 6.861382
714.9363, 6.360634
715.4185, 6.156860
715.9006, 6.563766
716.3827, 7.264381
716.8648, 7.734047
717.3469, 7.959702
717.8290, 8.118340
718.3112, 8.233742
718.7933, 8.258911
719.2754, 8.075874
719.7575, 7.855247
720.2396, 7.895020
720.7217, 8.238060
721.2039, 8.556091
721.6860, 8.521492
722.1681, 8.192177
722.6502, 7.730835
723.1323, 7.077888
723.6144, 6.837151
724.0966, 7.416328
724.5787, 8.158028
725.0608, 8.248466
725.5429, 7.698174
726.0250, 7.275322
726.5071, 7.062378
726.9893, 6.935677
727.4714, 6.952934
727.9535, 6.947510
728.4356, 6.700600
728.9177, 6.245766
729.3998, 5.903282
729.8820, 5.929573
730.3641, 6.222603
730.8462, 6.667023
731.3283, 7.279381
731.8104, 7.246284
732.2925, 6.155815
732.7747, 4.984337
733.2568, 4.566437
733.7389, 4.757034
734.2210, 4.734261
734.7031, 4.322617
735.1852, 4.006348
735.6674, 3.991524
736.1495, 4.002487
736.6316, 3.784355
737.1137, 3.379967
737.5958, 2.961426
738.0779, 2.624756
738.5601, 2.381462
739.0422, 2.211929
739.5243, 2.087433
740.0064, 1.991707
740.4885, 1.970329
740.9706, 1.880417
741.4528, 1.501778
741.9349, 1.018402
742.4170, 0.9895100
742.8991, 1.694466
743.3812, 1.877716
743.8633, 0.7858580
744.3455, 0.1681520
744.8276, 1.7310999E-02
745.3097, 0.6671070
745.7918, 0.9005130
746.2739, 0.4456100
746.7560, 2.7961999E-02
747.2382, 0.2360150
747.7203, 0.9615710
748.2024, 1.293091
748.6845, 1.223671
749.1666, 1.097610
749.6487, 1.033821
750.1309, 0.9343340
750.6130, 0.6452790
751.0951, 0.1532900
751.5772, 0.1399230
752.0593, 5.9119999E-02
752.5414, 3.4660000E-02
753.0236, 0.2807390
753.5057, 0.5364150
753.9878, 0.5325160
754.4699, 0.2959820
754.9520, 6.2080000E-02
755.4341, 2.5177000E-02
755.9163, 7.2852999E-02
756.3984, 0.3302540
756.8805, 0.6928560
757.3626, 0.6206510
757.8447, 2.7389999E-03
758.3268, 0.5905460
758.8090, 0.7491460
759.2911, 0.5392000
759.7732, 0.1561510
760.2553, 0.6148680
760.7374, 1.165398
761.2195, 1.574623
761.7017, 1.705391
762.1838, 1.260559
762.6659, 0.5777590
763.1480, 0.1996770
763.6301, 0.2861100
764.1122, 0.4496230
764.5944, 0.3060150
765.0765, 0.1072620
765.5586, 0.3977890
766.0407, 1.070892
766.5228, 1.392700
767.0049, 1.057564
767.4871, 0.5308300
767.9692, 0.4519960
768.4513, 0.8454130
768.9334, 0.9820710
769.4155, 0.6086580
769.8976, 0.3866730
770.3798, 0.7165180
770.8619, 1.044018
771.3440, 0.8226010
771.8261, 0.1616820
772.3082, 0.2837980
772.7903, 0.2097550
773.2725, 3.8780000E-02
773.7546, 0.3934780
774.2367, 0.6982120
774.7188, 0.5648500
775.2009, 4.9717002E-02
775.6830, 0.2451480
776.1652, 0.1003110
776.6473, 0.7987250
777.1294, 1.197895
777.6115, 1.287762
778.0936, 1.121304
778.5757, 0.5092540
779.0579, 2.1699999E-04
779.5400, 2.4608999E-02
780.0221, 0.2024420
780.5042, 0.2884750
780.9863, 0.1852380
781.4684, 0.1239090
781.9506, 0.1446950
782.4327, 0.2387660
782.9148, 0.4668920
783.3969, 0.7400700
783.8790, 0.8806000
784.3611, 0.8634870
784.8433, 0.8912580
785.3254, 1.223713
785.8075, 1.699486
786.2896, 1.748623
786.7717, 1.361782
787.2538, 1.169571
787.7360, 1.366070
788.2181, 1.675129
788.7002, 1.866817
789.1823, 1.950428
789.6644, 2.011417
790.1465, 2.047253
790.6286, 2.063080
791.1107, 2.155293
791.5928, 2.140388
792.0750, 1.753132
792.5571, 1.195549
793.0392, 0.8872760
793.5213, 0.9897540
794.0034, 1.278572
794.4855, 1.744495
794.9677, 2.187538
795.4498, 2.089352
795.9319, 1.524792
796.4140, 1.197895
796.8961, 1.412270
797.3782, 1.818642
797.8604, 1.902161
798.3425, 1.634857
798.8246, 1.767094
799.3067, 2.653618
799.7888, 3.290943
800.2709, 3.277206
800.7531, 3.049629
801.2352, 2.749565
801.7173, 2.467236
802.1994, 2.603756
802.6815, 3.754398
803.1636, 4.671013
803.6458, 4.379459
804.1279, 3.690941
804.6100, 3.587875
805.0921, 4.048317
805.5742, 4.497345
806.0563, 4.615623
806.5385, 4.625893
807.0206, 5.021782
807.5027, 5.743069
807.9848, 5.758823
808.4669, 4.845833
808.9490, 4.172577
809.4312, 4.338795
809.9133, 4.906288
810.3954, 5.239223
810.8775, 5.297794
811.3596, 5.237553
811.8417, 5.085709
812.3239, 4.837715
812.8060, 4.226109
813.2881, 3.692028
813.7702, 3.772152
814.2523, 4.373638
814.7344, 4.914101
815.2166, 5.103821
815.6987, 5.103249
816.1808, 4.916382
816.6629, 4.708252
817.1450, 4.926243
817.6271, 5.561794
818.1093, 6.032204
818.5914, 5.993664
819.0735, 5.681683
819.5556, 5.538456
820.0377, 5.582211
820.5198, 5.630840
821.0020, 5.643234
821.4841, 5.757660
821.9662, 6.278980
822.4483, 6.739719
822.9304, 6.478149
823.4125, 5.531918
823.8947, 4.943829
824.3768, 5.206982
824.8589, 5.505611
825.3410, 5.393398
825.8231, 5.201679
826.3052, 5.348038
826.7874, 5.792511
827.2695, 6.228767
827.7516, 6.521927
828.2337, 6.621887
828.7158, 6.249577
829.1979, 5.574753
829.6801, 5.447987
830.1622, 5.947525
830.6443, 6.405190
831.1264, 6.464375
831.6085, 6.319244
832.0906, 6.304874
832.5728, 6.428532
833.0549, 6.565174
833.5370, 6.733402
834.0191, 6.919243
834.5012, 7.284664
834.9833, 7.498402
835.4655, 7.110718
835.9476, 6.270626
836.4297, 5.768433
836.9118, 6.037899
837.3939, 6.431641
837.8760, 6.579758
838.3582, 6.620659
838.8403, 6.734539
839.3224, 6.935715
839.8045, 7.170074
840.2866, 7.419369
840.7687, 7.685394
841.2509, 7.993233
841.7330, 8.284191
842.2151, 8.314213
842.6972, 8.086845
843.1793, 7.665764
843.6614, 6.910942
844.1436, 6.362286
844.6257, 6.833569
845.1078, 8.288719
845.5899, 8.929520
846.0720, 7.971825
846.5541, 7.350056
847.0363, 7.436958
847.5184, 7.719425
848.0005, 7.987392
848.4826, 8.128662
848.9647, 7.981186
849.4468, 7.438072
849.9290, 7.027531
850.4111, 7.120007
850.8932, 7.405170
851.3753, 7.654907
851.8574, 7.795506
852.3395, 7.668583
852.8217, 7.286011
853.3038, 7.009670
853.7859, 7.225800
854.2680, 7.734642
854.7501, 7.939636
855.2322, 7.854542
855.7144, 7.760422
856.1965, 7.681904
856.6786, 7.663918
857.1607, 7.797131
857.6428, 8.068485
858.1249, 8.274155
858.6071, 8.295746
859.0892, 8.368641
859.5713, 8.774864
860.0534, 8.977142
860.5355, 8.543896
861.0176, 7.909409
861.4998, 7.595119
861.9819, 7.628189
862.4640, 7.740128
862.9461, 7.779003
863.4282, 7.965355
863.9103, 8.704987
864.3925, 9.548115
864.8746, 9.785458
865.3567, 9.429379
865.8388, 8.984810
866.3209, 8.723122
866.8030, 8.550228
867.2852, 8.294979
867.7673, 8.014393
868.2494, 8.015030
868.7315, 8.314762
869.2136, 8.571774
869.6957, 8.651104
870.1779, 8.582001
870.6600, 8.381191
871.1421, 8.053120
871.6242, 7.903034
872.1063, 7.995693
872.5884, 8.138847
873.0705, 8.466599
873.5526, 8.654076
874.0347, 8.320457
874.5168, 7.719681
874.9990, 7.524185
875.4811, 8.029346
875.9632, 8.377697
876.4453, 8.107540
876.9274, 7.723427
877.4095, 7.632961
877.8917, 7.687580
878.3738, 7.577866
878.8559, 7.247425
879.3380, 6.902393
879.8201, 6.694595
880.3022, 6.577568
880.7844, 6.459988
881.2665, 6.360703
881.7486, 6.417892
882.2307, 6.640350
882.7128, 6.723988
883.1949, 6.449471
883.6771, 6.022892
884.1592, 5.910564
884.6413, 6.181702
885.1234, 6.223476
885.6055, 5.881943
886.0876, 5.710606
886.5698, 6.126297
887.0519, 6.556248
887.5340, 6.228405
888.0161, 5.213165
888.4982, 4.577911
888.9803, 4.575733
889.4625, 4.633320
889.9446, 4.791988
890.4267, 4.851444
890.9088, 4.544842
891.3909, 4.071438
891.8730, 3.825268
892.3552, 3.918800
892.8373, 4.138405
893.3194, 4.597305
893.8015, 4.900673
894.2836, 4.306591
894.7657, 3.322308
895.2479, 3.142082
895.7300, 3.905216
896.2121, 4.720737
896.6942, 4.964878
897.1763, 4.716278
897.6584, 3.929035
898.1406, 2.692013
898.6227, 1.950092
899.1048, 1.827675
899.5869, 1.696060
900.0690, 1.219128
900.5511, 0.6921310
901.0333, 0.5735020
901.5154, 0.8833200
901.9975, 1.118958
902.4796, 1.295551
902.9617, 1.390202
903.4438, 1.375275
903.9260, 1.284546
904.4081, 1.008541
904.8902, 0.6969570
905.3723, 0.7937770
905.8544, 1.612644
906.3365, 2.070881
906.8187, 1.657944
907.3008, 1.067337
907.7829, 0.5605240
908.2650, 0.2156600
908.7471, 0.1857410
909.2292, 0.4274100
909.7114, 0.5680050
910.1935, 0.2902600
910.6756, 3.1342000E-02
911.1577, 6.2820002E-02
911.6398, 0.3589060
912.1219, 0.4242590
912.6041, 0.2679860
913.0862, 0.2491650
913.5683, 0.5389140
914.0504, 0.7509460
914.5325, 0.2083740
915.0146, 0.8806300
915.4968, 1.206661
915.9789, 0.7367320
916.4610, 0.4985280
916.9431, 0.7890170
917.4252, 1.175049
917.9073, 1.335793
918.3895, 1.281471
918.8716, 1.004730
919.3537, 0.2735900
919.8358, 9.6938998E-02
920.3179, 5.7579000E-02
920.8000, 0.3401790
921.2822, 0.7200930
921.7643, 1.067490
922.2464, 1.251945
922.7285, 1.275024
923.2106, 1.173820
923.6927, 0.7268220
924.1749, 0.4627840
924.6570, 0.6837080
925.1391, 1.007240
925.6212, 1.190086
926.1033, 1.220139
926.5854, 1.085152
927.0676, 0.7746660
927.5497, 0.5734560
928.0318, 0.7368770
928.5139, 1.042931
928.9960, 1.357018
929.4781, 1.608536
929.9603, 1.663063
930.4424, 1.514938
930.9245, 1.257866
931.4066, 0.9391020
931.8887, 0.6333920
932.3708, 0.4991530
932.8530, 0.4790270
933.3351, 0.3506550
933.8172, 0.1057590
934.2993, 0.2795940
934.7814, 0.8354260
935.2635, 1.240692
935.7457, 1.058998
936.2278, 0.4667430
936.7099, 0.6146390
937.1920, 1.768616
937.6741, 2.454147
938.1563, 2.290588
938.6384, 2.130493
939.1205, 2.469040
939.6026, 3.086235
940.0847, 3.629158
940.5668, 4.118279
941.0490, 4.387177
941.5311, 4.208138
942.0132, 4.131699
942.4953, 4.124283
942.9774, 4.383095
943.4595, 5.413818
943.9417, 6.779434
944.4238, 7.249123
944.9059, 6.253372
945.3880, 5.633972
945.8701, 6.468040
946.3522, 7.427872
946.8344, 7.595009
947.3165, 7.374710
947.7986, 7.273834
948.2807, 7.412811
948.7628, 7.815437
949.2449, 8.595284
949.7271, 9.381271
950.2092, 9.726128
950.6913, 9.915977
951.1734, 10.43002
951.6555, 11.20761
952.1376, 11.89365
952.6198, 12.37745
953.1019, 12.94956
953.5840, 13.95499
954.0661, 15.18927
954.5482, 16.06689
955.0303, 16.67218
955.5124, 17.72025
955.9945, 19.30212
956.4766, 20.53970
956.9587, 20.92742
957.4409, 21.05575
957.9230, 21.88260
958.4051, 23.39568
958.8872, 24.66934
959.3693, 25.69136
959.8514, 26.65210
960.3336, 27.56870
960.8157, 28.46454
961.2978, 29.30621
961.7799, 30.14906
962.2620, 31.15972
962.7441, 32.40923
963.2263, 33.60503
963.7084, 34.49780
964.1905, 35.72098
964.6726, 37.73430
965.1547, 39.84352
965.6368, 41.36967
966.1190, 42.46390
966.6011, 43.87585
967.0832, 45.92856
967.5653, 47.87851
968.0474, 49.40398
968.5295, 50.91843
969.0117, 52.88695
969.4938, 54.90302
969.9759, 56.25356
970.4580, 56.94934
970.9401, 57.82686
971.4222, 59.45654
971.9044, 61.04909
972.3865, 61.82246
972.8686, 62.43613
973.3507, 63.84511
973.8328, 65.76888
974.3149, 67.39144
974.7971, 68.42162
975.2792, 68.99618
975.7613, 68.99657
976.2434, 68.88647
976.7255, 69.21991
977.2076, 69.96234
977.6898, 71.21381
978.1719, 72.76575
978.6540, 73.74074
979.1361, 73.72967
979.6182, 73.27930
980.1003, 73.06018
980.5825, 72.97413
981.0646, 72.68916
981.5467, 72.22786
982.0288, 71.60755
982.5109, 70.80917
982.9930, 69.77216
983.4752, 68.44180
983.9573, 67.00584
984.4394, 65.82532
984.9215, 64.91171
985.4036, 63.98534
985.8857, 63.03485
986.3679, 62.01791
986.8500, 60.94053
987.3321, 59.73543
987.8142, 58.33577
988.2963, 56.80060
988.7784, 55.26389
989.2606, 53.66000
989.7427, 52.36054
990.2248, 51.76866
990.7069, 50.63417
991.1890, 48.05415
991.6711, 45.34674
992.1533, 43.84337
992.6354, 43.33910
993.1175, 42.66732
993.5996, 41.86949
994.0817, 40.83470
994.5638, 39.35118
995.0460, 37.87679
995.5281, 36.58112
996.0102, 35.39151
996.4923, 34.29208
996.9744, 33.24420
997.4565, 32.02795
997.9387, 30.27839
998.4208, 28.90394
998.9029, 28.60573
999.3850, 28.26008
999.8671, 26.96191
1000.349, 25.27994
1000.831, 24.06918
1001.313, 23.42194
1001.796, 22.88963
1002.278, 22.54376
1002.760, 21.88368
1003.242, 20.19730
1003.724, 18.45821
1004.206, 17.61479
1004.688, 17.41655
1005.170, 17.35190
1005.653, 17.23213
1006.135, 16.76355
1006.617, 15.53748
1007.099, 14.18257
1007.581, 13.27306
1008.063, 12.61732
1008.545, 11.91995
1009.027, 11.22705
1009.509, 10.79805
1009.992, 10.70656
1010.474, 10.67622
1010.956, 10.50279
1011.438, 10.20807
1011.920, 9.838135
1012.402, 9.367752
1012.884, 8.715378
1013.366, 7.894836
1013.849, 6.954865
1014.331, 5.921356
1014.813, 5.009537
1015.295, 4.436020
1015.777, 4.178894
1016.259, 4.312546
1016.741, 4.732224
1017.223, 4.933258
1017.705, 4.850891
1018.188, 4.719696
1018.670, 4.665253
1019.152, 4.506577
1019.634, 3.906387
1020.116, 3.012390
1020.598, 2.582001
1021.080, 2.599045
1021.562, 2.624710
1022.044, 2.587128
1022.527, 2.474426
1023.009, 2.276825
1023.491, 2.011139
1023.973, 1.670288
1024.455, 1.270905
1024.937, 1.137741
1025.419, 1.315002
1025.901, 1.382904
1026.384, 1.253006
1026.866, 1.026382
1027.348, 0.6920320
1027.830, 0.4742430
1028.312, 0.8846590
1028.794, 1.979233
1029.276, 2.296631
1029.758, 1.511322
1030.240, 1.125900
1030.723, 1.547150
1031.205, 2.139450
1031.687, 2.579010
1032.169, 2.812256
1032.651, 2.654999
1033.133, 1.996719
1033.615, 1.899765
1034.097, 2.654510
1034.579, 3.337555
1035.062, 3.759201
1035.544, 4.090378
1036.026, 4.378662
1036.508, 4.686249
1036.990, 5.174057
1037.472, 5.906342
1037.954, 6.446335
1038.436, 6.587524
1038.919, 6.858871
1039.401, 7.250046
1039.883, 7.906097
1040.365, 9.255234
1040.847, 10.83519
1041.329, 11.53094
1041.811, 11.06113
1042.293, 11.22391
1042.776, 12.60135
1043.258, 13.84720
1043.740, 14.65123
1044.222, 15.31581
1044.704, 15.98117
1045.186, 16.66203
1045.668, 17.34380
1046.150, 17.99712
1046.632, 18.84181
1047.115, 19.91315
1047.597, 21.15929
1048.079, 22.91458
1048.561, 24.49602
1049.043, 25.27710
1049.525, 25.61136
1050.007, 26.22789
1050.489, 27.23831
1050.971, 28.09299
1051.454, 28.44897
1051.936, 28.95419
1052.418, 29.87894
1052.900, 30.94365
1053.382, 32.01282
1053.864, 33.04738
1054.346, 33.95215
1054.828, 34.71019
1055.311, 35.66338
1055.793, 37.23257
1056.275, 38.56445
1056.757, 38.97765
1057.239, 39.42625
1057.721, 40.84871
1058.203, 42.71964
1058.685, 44.04727
1059.167, 44.68600
1059.650, 45.31845
1060.132, 46.07001
1060.614, 46.98386
1061.096, 48.32648
1061.578, 49.59691
1062.060, 50.22479
1062.542, 50.60594
1063.024, 51.51562
1063.506, 53.02098
1063.989, 54.28241
1064.471, 55.13908
1064.953, 55.49730
1065.435, 54.83627
1065.917, 54.13885
1066.399, 54.13240
1066.881, 54.61096
1067.363, 55.26500
1067.846, 56.00504
1068.328, 56.69276
1068.810, 57.43629
1069.292, 57.83977
1069.774, 57.51373
1070.256, 56.99905
1070.738, 56.48239
1071.220, 56.16338
1071.703, 56.50072
1072.185, 57.35587
1072.667, 57.65703
1073.149, 56.73889
1073.631, 55.84660
1074.113, 55.73495
1074.595, 55.67142
1075.077, 55.07722
1075.559, 54.23655
1076.042, 53.52556
1076.524, 52.98018
1077.006, 52.46133
1077.488, 51.90031
1077.970, 51.42307
1078.452, 51.31396
1078.934, 51.05634
1079.416, 49.99518
1079.898, 48.79630
1080.380, 48.46886
1080.863, 48.76788
1081.345, 48.49919
1081.827, 47.17711
1082.309, 45.88800
1082.791, 45.12076
1083.273, 44.52275
1083.755, 43.97247
1084.237, 43.40995
1084.720, 42.92447
1085.202, 42.35846
1085.684, 41.17092
1086.166, 39.12451
1086.648, 37.60139
1087.130, 37.61392
1087.612, 37.73169
1088.094, 37.24319
1088.577, 36.51982
1089.059, 36.05559
1089.541, 35.60066
1090.023, 34.36199
1090.505, 32.17737
1090.987, 30.89879
1091.469, 32.27226
1091.951, 33.29034
1092.433, 32.32726
1092.916, 30.80452
1093.398, 29.88034
1093.880, 29.20271
1094.362, 27.79330
1094.844, 25.65695
1095.326, 24.43029
1095.808, 25.53635
1096.290, 26.19767
1096.772, 25.13252
1097.255, 23.84106
1097.737, 23.20656
1098.219, 22.90495
1098.701, 22.40559
1099.183, 21.68861
1099.665, 21.15514
1100.147, 21.00637
1100.629, 20.89704
1101.112, 20.85542
1101.594, 20.68533
1102.076, 20.24322
1102.558, 19.64205
1103.040, 18.94040
1103.522, 18.23341
1104.004, 17.70548
1104.486, 17.31724
1104.969, 17.12395
1105.451, 17.38155
1105.933, 17.62857
1106.415, 17.86712
1106.897, 17.84293
1107.379, 17.11414
1107.861, 16.00254
1108.343, 15.38067
1108.825, 15.45272
1109.307, 15.29890
1109.790, 14.47224
1110.272, 13.89457
1110.754, 14.06417
1111.236, 14.21544
1111.718, 13.80741
1112.200, 13.14458
1112.682, 12.74034
1113.164, 12.62297
1113.647, 12.38730
1114.129, 11.89940
1114.611, 11.43764
1115.093, 10.95433
1115.575, 10.63559
1116.057, 10.66770
1116.539, 10.83559
1117.021, 10.92735
1117.504, 10.90823
1117.986, 10.59332
1118.468, 9.711639
1118.950, 9.275642
1119.432, 9.505310
1119.914, 9.665337
1120.396, 9.512032
1120.878, 9.245430
1121.360, 9.021896
1121.843, 8.844383
1122.325, 8.708160
1122.807, 8.630867
1123.289, 8.387848
1123.771, 7.923080
1124.253, 7.479057
1124.735, 7.084236
1125.217, 6.826759
1125.699, 6.777443
1126.182, 6.857475
1126.664, 6.931213
1127.146, 6.997299
1127.628, 7.227158
1128.110, 7.717506
1128.592, 7.458847
1129.074, 6.203125
1129.556, 5.154648
1130.039, 4.881805
1130.521, 4.876892
1131.003, 4.552383
1131.485, 4.058670
1131.967, 3.986656
1132.449, 4.302994
1132.931, 4.387146
1133.413, 4.203873
1133.896, 4.075844
1134.378, 4.099510
1134.860, 3.850067
1135.342, 2.926903
1135.824, 1.901955
1136.306, 2.000282
1136.788, 2.867058
1137.270, 3.066673
1137.752, 2.714005
1138.234, 2.543587
1138.717, 2.662048
1139.199, 2.685471
1139.681, 2.409943
1140.163, 1.961113
1140.645, 1.334885
1141.127, 0.7533800
1141.609, 0.8127290
1142.091, 1.154922
1142.574, 0.9045180
1143.056, 0.1759800
1143.538, 0.4074710
1144.020, 0.6370700
1144.502, 0.5666660
1144.984, 7.8651004E-02
1145.466, 0.3157500
1145.948, 0.1546400
1146.431, 0.8367390
1146.913, 0.8181230
1147.395, 0.4201350
1147.877, 0.2975080
1148.359, 0.5279080
1148.841, 0.8770830
1149.323, 1.295685
1149.805, 1.529381
1150.287, 1.306931
1150.770, 0.9643710
1151.252, 0.5853420
1151.734, 0.3390580
1152.216, 0.5750730
1152.698, 1.039658
1153.180, 1.045918
1153.662, 0.4531020
1154.144, 0.1890640
1154.626, 0.8892970
1155.109, 1.510254
1155.591, 1.807686
1156.073, 1.811344
1156.555, 1.309322
1157.037, 0.6767010
1157.519, 0.4029770
1158.001, 0.4682660
1158.483, 0.5161170
1158.966, 0.5259670
1159.448, 0.4861340
1159.930, 0.2682610
1160.412, 0.2026100
1160.894, 0.6178590
1161.376, 0.9313390
1161.858, 0.5544620
1162.340, 0.1400490
1162.822, 0.3003010
1163.305, 0.1456570
1163.787, 0.4220240
1164.269, 0.5116040
1164.751, 0.4521600
1165.233, 0.1687430
1165.715, 1.5881000E-02
1166.197, 8.9100003E-02
1166.679, 0.2502630
1167.161, 0.1920240
1167.644, 2.9949000E-02
1168.126, 0.2230870
1168.608, 0.3940470
1169.090, 0.3725130
1169.572, 0.1467320
1170.054, 0.1300960
1170.536, 0.4200740
1171.018, 0.4748540
1171.500, 0.1020970
1171.983, 0.4651070
1172.465, 0.9097750
1172.947, 1.211792
1173.429, 1.198807
1173.911, 0.9947700
1174.393, 1.175987
1174.875, 1.696598
1175.357, 1.857567
1175.840, 1.432755
1176.322, 1.107449
1176.804, 1.450596
1177.286, 2.157627
1177.768, 3.204990
1178.250, 4.118198
1178.732, 3.967178
1179.214, 3.233234
1179.697, 2.915997
1180.179, 3.106243
1180.661, 3.357620
1181.143, 3.509415
1181.625, 3.496288
1182.107, 3.146820
1182.589, 2.779438
1183.071, 2.480267
1183.553, 2.376656
1184.036, 2.738148
1184.518, 3.314266
1185.000, 3.643337
1185.482, 3.667755
1185.964, 3.654171
1186.446, 3.544777
1186.928, 3.590347
1187.410, 4.019798
1187.892, 4.379929
1188.375, 4.458038
1188.857, 4.397034
1189.339, 4.282013
1189.821, 4.154205
1190.303, 4.136589
1190.785, 4.236568
1191.267, 4.398567
1191.749, 4.631790
1192.232, 4.934158
1192.714, 5.401115
1193.196, 5.605560
1193.678, 5.212944
1194.160, 4.829453
1194.642, 5.290146
1195.124, 6.267204
1195.606, 6.369595
1196.089, 5.641903
1196.571, 5.253082
1197.053, 5.249332
1197.535, 5.379852
1198.017, 5.575558
1198.499, 5.847031
1198.981, 6.216930
1199.463, 6.445457
1199.945, 6.015358
1200.427, 5.373478
1200.910, 5.488102
1201.392, 6.048759
1201.874, 6.494713
1202.356, 6.751614
1202.838, 6.804203
1203.320, 6.658955
1203.802, 6.442314
1204.284, 6.159744
1204.767, 5.991066
1205.249, 6.148766
1205.731, 6.387981
1206.213, 6.498627
1206.695, 6.559391
1207.177, 6.761726
1207.659, 6.999603
1208.141, 6.941460
1208.624, 6.501820
1209.106, 6.141556
1209.588, 5.871639
1210.070, 5.803665
1210.552, 6.165863
1211.034, 6.490368
1211.516, 6.471977
1211.998, 6.392921
1212.480, 6.540783
1212.963, 6.822498
1213.445, 6.887074
1213.927, 6.696556
1214.409, 6.615242
1214.891, 6.696968
1215.373, 6.695038
1215.855, 6.555508
1216.337, 6.205490
1216.819, 5.530449
1217.302, 5.090477
1217.784, 5.694042
1218.266, 6.879230
1218.748, 7.232513
1219.230, 6.860947
1219.712, 6.105495
1220.194, 5.164970
1220.676, 4.759544
1221.159, 4.955883
1221.641, 5.187237
1222.123, 5.148869
1222.605, 5.103668
1223.087, 5.440723
1223.569, 5.792370
1224.051, 5.615120
1224.533, 5.263832
1225.016, 5.280972
1225.498, 5.498386
1225.980, 5.463425
1226.462, 5.141727
1226.944, 4.874229
1227.426, 4.802471
1227.908, 4.665241
1228.390, 4.441544
1228.872, 4.232025
1229.354, 3.825436
1229.837, 3.452736
1230.319, 3.427078
1230.801, 3.546562
1231.283, 3.719864
1231.765, 4.000832
1232.247, 4.149860
1232.729, 4.069157
1233.211, 4.109135
1233.694, 4.277592
1234.176, 4.438400
1234.658, 4.628563
1235.140, 4.756218
1235.622, 4.651749
1236.104, 4.404526
1236.586, 4.218586
1237.068, 4.070671
1237.551, 3.903343
1238.033, 3.749790
1238.515, 3.751411
1238.997, 3.910839
1239.479, 4.130661
1239.961, 4.341133
1240.443, 4.486374
1240.925, 4.390282
1241.407, 4.257870
1241.890, 4.331463
1242.372, 4.434097
1242.854, 4.287823
1243.336, 4.080957
1243.818, 4.052223
1244.300, 4.128531
1244.782, 4.127022
1245.264, 4.043901
1245.746, 4.131859
1246.229, 4.663212
1246.711, 4.971489
1247.193, 4.693867
1247.675, 4.429703
1248.157, 4.466061
1248.639, 4.556023
1249.121, 4.598000
1249.603, 4.537876
1250.085, 4.227226
1250.568, 3.692623
1251.050, 3.361496
1251.532, 3.244083
1252.014, 3.413536
1252.496, 3.814930
1252.978, 4.153580
1253.460, 4.414196
1253.942, 4.377819
1254.425, 3.880249
1254.907, 3.270687
1255.389, 3.085861
1255.871, 3.141163
1256.353, 3.069210
1256.835, 2.991398
1257.317, 3.140377
1257.799, 3.424206
1258.281, 3.676960
1258.764, 3.839779
1259.246, 3.903870
1259.728, 3.906410
1260.210, 3.744904
1260.692, 3.030594
1261.174, 2.529942
1261.656, 2.781174
1262.138, 3.230465
1262.620, 3.587372
1263.103, 3.778358
1263.585, 3.733749
1264.067, 3.465057
1264.549, 2.960472
1265.031, 1.967541
1265.513, 1.709110
1265.995, 2.433468
1266.477, 2.844040
1266.960, 2.614761
1267.442, 2.384449
1267.924, 2.507095
1268.406, 2.668247
1268.888, 2.471985
1269.370, 2.176476
1269.852, 2.522667
1270.334, 3.143940
1270.817, 3.031815
1271.299, 2.460892
1271.781, 2.420486
1272.263, 2.863567
1272.745, 2.888882
1273.227, 2.146763
1273.709, 1.379749
1274.191, 0.8388440
1274.673, 0.6271130
1275.156, 1.105171
1275.638, 1.563114
1276.120, 1.588100
1276.602, 1.306801
1277.084, 0.6257930
1277.566, 0.1622700
1278.048, 9.3510002E-02
1278.530, 0.9710690
1279.012, 1.615810
1279.495, 1.758083
1279.977, 1.737083
1280.459, 1.657196
1280.941, 1.405560
1281.423, 0.6940540
1281.905, 0.1123050
1282.387, 1.7302999E-02
1282.869, 0.1144450
1283.352, 0.2428740
1283.834, 0.3128590
1284.316, 0.2141230
1284.798, 0.0000000E+00
##END=



