##NAMES=Lefontite
##RRUFFID=R140539
##IDEAL CHEMISTRY=Fe^2+^_2_Al_2_Be(PO_4_)_2_(OH)_6_
##LOCALITY=Palermo No. 1 mine, Groton, New Hampshire, USA
##OWNER=RRUFF
##SOURCE=Benjamin N. Schumer
##DESCRIPTION=Dark or reddish brown prismatic crystals, associated with grey bladed eosphorite, colorless or white prismatic palermoite (R120141), and natropalermoite (130092).
##STATUS=The identification of this mineral is confirmed by single-crystal X-ray diffraction and chemical analysis.
##URL=rruff.info/R140539
##MEASURED CHEMISTRY=(Fe^2+^_1.22_Mn_0.48_Ca_0.16_Mg_0.05_)_Î£=1.91_Al_1.91_Be_0.97_(PO_4_)_2_(OH)_6.50_ ; Be2+ needs to be analyzed by Icp-ms
108.1036, 0.0000000E+00
108.5858, 0.1217040
109.0679, 0.3116460
109.5500, 1.567627
110.0321, 3.472107
110.5142, 5.917725
110.9963, 9.468658
111.4785, 12.76318
111.9606, 15.54495
112.4427, 17.81766
112.9248, 20.03268
113.4069, 22.23489
113.8890, 24.40750
114.3712, 26.55365
114.8533, 29.36533
115.3354, 31.50061
115.8175, 32.18735
116.2996, 31.26511
116.7817, 30.60086
117.2639, 31.49329
117.7460, 32.85403
118.2281, 33.31549
118.7102, 31.56375
119.1923, 29.41534
119.6744, 27.84604
120.1566, 26.95044
120.6387, 26.59946
121.1208, 26.82315
121.6029, 27.53995
122.0850, 28.49734
122.5671, 30.22559
123.0493, 31.79980
123.5314, 32.14743
124.0135, 30.80170
124.4956, 28.90552
124.9777, 27.36310
125.4598, 26.13657
125.9420, 25.14703
126.4241, 24.36353
126.9062, 23.77054
127.3883, 23.38004
127.8704, 23.32474
128.3525, 23.69601
128.8347, 24.35593
129.3168, 24.71545
129.7989, 24.79599
130.2810, 24.55463
130.7631, 23.78418
131.2452, 23.08051
131.7274, 23.11249
132.2095, 23.71698
132.6916, 23.37744
133.1737, 21.40106
133.6558, 19.45840
134.1379, 19.43640
134.6201, 20.26102
135.1022, 20.55405
135.5843, 20.02481
136.0664, 18.89630
136.5485, 17.94891
137.0306, 17.56839
137.5128, 17.48630
137.9949, 17.33063
138.4770, 17.12256
138.9591, 16.85321
139.4412, 16.62759
139.9233, 16.49332
140.4055, 15.59512
140.8876, 13.57605
141.3697, 11.13474
141.8518, 9.425385
142.3339, 8.650970
142.8160, 8.147400
143.2982, 7.725433
143.7803, 7.453796
144.2624, 7.041901
144.7445, 6.429138
145.2266, 5.695557
145.7087, 5.068939
146.1909, 4.711090
146.6730, 4.251465
147.1551, 3.523224
147.6372, 2.312317
148.1193, 1.210236
148.6014, 0.1165770
149.0836, 0.8768620
149.5657, 1.489868
150.0478, 1.394318
150.5299, 1.169098
151.0120, 1.065063
151.4941, 1.378326
151.9763, 1.473846
152.4584, 1.200195
152.9405, 0.6484380
153.4226, 0.2604680
153.9047, 1.4709000E-02
154.3868, 1.8646000E-02
154.8690, 0.1985780
155.3511, 1.091614
155.8332, 1.790527
156.3153, 2.185486
156.7974, 2.276520
157.2795, 2.083893
157.7617, 0.8420410
158.2438, 0.2799380
158.7259, 0.4398500
159.2080, 1.880402
159.6901, 3.906342
160.1722, 4.691925
160.6544, 4.270569
161.1365, 3.670807
161.6186, 3.060577
162.1007, 2.520813
162.5828, 2.112885
163.0649, 2.156952
163.5471, 2.108612
164.0292, 1.556671
164.5113, 0.4898990
164.9934, 0.3210140
165.4755, 0.2319640
165.9576, 0.2096560
166.4398, 0.4571230
166.9219, 7.5897001E-02
167.4040, 0.4266360
167.8861, 0.6430660
168.3682, 0.5312500
168.8503, 0.5526430
169.3325, 1.237488
169.8146, 2.230957
170.2967, 2.951385
170.7788, 2.958496
171.2609, 2.697357
171.7430, 2.533203
172.2252, 2.488434
172.7073, 2.557343
173.1894, 2.647095
173.6715, 2.843964
174.1536, 3.330536
174.6357, 4.679626
175.1179, 6.172424
175.6000, 6.764099
176.0821, 6.220581
176.5642, 5.588623
177.0463, 6.138245
177.5284, 7.502350
178.0106, 8.547150
178.4927, 8.345490
178.9748, 7.507690
179.4569, 7.040253
179.9390, 7.046478
180.4211, 7.385834
180.9033, 8.063446
181.3854, 9.006866
181.8675, 9.845917
182.3496, 10.28790
182.8317, 10.47632
183.3138, 10.80066
183.7960, 11.34048
184.2781, 11.90036
184.7602, 12.14792
185.2423, 12.11588
185.7244, 12.07678
186.2065, 12.18048
186.6887, 12.40207
187.1708, 12.64227
187.6529, 12.85333
188.1350, 13.14520
188.6171, 13.81451
189.0992, 14.85349
189.5814, 15.79642
190.0635, 16.21790
190.5456, 16.21945
191.0277, 16.49445
191.5098, 17.20093
191.9919, 18.09085
192.4741, 18.72461
192.9562, 19.10635
193.4383, 19.17697
193.9204, 18.68878
194.4025, 17.69162
194.8846, 17.07913
195.3668, 17.05167
195.8489, 17.35443
196.3310, 17.43628
196.8131, 17.29807
197.2952, 16.92349
197.7773, 16.05640
198.2595, 14.67093
198.7416, 13.99487
199.2237, 14.38467
199.7058, 15.41040
200.1879, 15.81122
200.6700, 15.46112
201.1522, 15.08783
201.6343, 15.40179
202.1164, 16.54303
202.5985, 16.84344
203.0806, 15.77313
203.5627, 13.90961
204.0449, 13.23416
204.5270, 14.02167
205.0091, 15.08344
205.4912, 15.55072
205.9733, 15.27963
206.4554, 15.13809
206.9376, 15.33105
207.4197, 15.70984
207.9018, 15.57339
208.3839, 14.70825
208.8660, 13.89819
209.3481, 13.76074
209.8303, 14.51205
210.3124, 15.08356
210.7945, 15.37692
211.2766, 15.41556
211.7587, 15.28983
212.2408, 14.91165
212.7230, 14.50424
213.2051, 14.09750
213.6872, 13.56915
214.1693, 13.57870
214.6514, 14.46368
215.1335, 15.96323
215.6157, 16.76013
216.0978, 16.54269
216.5799, 16.08502
217.0620, 15.81152
217.5441, 15.85712
218.0262, 15.73047
218.5084, 15.34918
218.9905, 14.83307
219.4726, 14.79504
219.9547, 15.50360
220.4368, 16.21930
220.9189, 16.38251
221.4011, 15.70138
221.8832, 15.31863
222.3653, 15.40326
222.8474, 15.84180
223.3295, 16.28403
223.8116, 16.70557
224.2938, 17.15137
224.7759, 17.70703
225.2580, 18.53534
225.7401, 19.02725
226.2222, 19.05527
226.7043, 18.70996
227.1865, 18.32794
227.6686, 17.75565
228.1507, 17.37961
228.6328, 17.55719
229.1149, 18.86835
229.5970, 19.32462
230.0792, 18.46872
230.5613, 16.67297
231.0434, 15.41394
231.5255, 14.85596
232.0076, 14.62756
232.4897, 14.56085
232.9719, 14.69327
233.4540, 14.94284
233.9361, 15.43268
234.4182, 16.03647
234.9003, 16.29367
235.3824, 16.05441
235.8646, 15.68338
236.3467, 15.34003
236.8288, 14.98999
237.3109, 14.72952
237.7930, 14.55835
238.2751, 14.46722
238.7573, 14.45883
239.2394, 14.60178
239.7215, 14.70920
240.2036, 14.68140
240.6857, 14.42783
241.1678, 14.23355
241.6500, 14.16602
242.1321, 14.13605
242.6142, 13.86490
243.0963, 13.05569
243.5784, 12.44958
244.0605, 12.45804
244.5427, 13.53809
245.0248, 14.04358
245.5069, 13.77896
245.9890, 13.02203
246.4711, 12.38605
246.9532, 11.94345
247.4354, 11.49866
247.9175, 10.90475
248.3996, 9.923523
248.8817, 9.628693
249.3638, 10.41287
249.8459, 11.67136
250.3281, 12.22812
250.8102, 11.64075
251.2923, 11.13724
251.7744, 11.20847
252.2565, 12.07849
252.7386, 12.57501
253.2208, 12.54578
253.7029, 12.25607
254.1850, 12.11948
254.6671, 12.20923
255.1492, 12.29144
255.6313, 12.23801
256.1135, 11.97791
256.5956, 12.02722
257.0777, 12.45621
257.5598, 13.11133
258.0419, 13.84399
258.5240, 14.77682
259.0062, 15.47495
259.4883, 15.77557
259.9704, 15.65161
260.4525, 15.48547
260.9346, 15.22302
261.4167, 14.99368
261.8989, 15.00696
262.3810, 15.44034
262.8631, 15.63892
263.3452, 15.28540
263.8273, 14.38766
264.3094, 14.32468
264.7916, 15.45624
265.2737, 16.85782
265.7558, 17.58575
266.2379, 17.39624
266.7200, 17.35791
267.2021, 17.80014
267.6843, 18.63013
268.1664, 18.81247
268.6485, 18.02042
269.1306, 17.25101
269.6127, 17.42819
270.0948, 18.74887
270.5770, 20.12769
271.0591, 21.49118
271.5412, 22.75287
272.0233, 23.46869
272.5054, 23.49356
272.9875, 23.32224
273.4697, 23.28693
273.9518, 23.39841
274.4339, 23.55063
274.9160, 23.74680
275.3981, 23.96979
275.8802, 24.16873
276.3624, 24.34900
276.8445, 24.50070
277.3266, 24.68704
277.8087, 24.93301
278.2908, 24.80997
278.7729, 24.15295
279.2551, 23.26859
279.7372, 22.84512
280.2193, 22.90610
280.7014, 23.28537
281.1835, 24.17960
281.6656, 25.57077
282.1478, 26.03607
282.6299, 25.29895
283.1120, 24.06094
283.5941, 23.47479
284.0762, 23.56058
284.5583, 23.86105
285.0405, 24.26697
285.5226, 24.75140
286.0047, 25.03296
286.4868, 25.07272
286.9689, 25.03247
287.4510, 25.11008
287.9332, 25.30396
288.4153, 25.56836
288.8974, 25.86328
289.3795, 26.22610
289.8616, 26.85660
290.3438, 27.79764
290.8259, 28.70764
291.3080, 29.14337
291.7901, 29.16733
292.2722, 29.20145
292.7543, 29.43695
293.2365, 29.75635
293.7186, 29.81952
294.2007, 29.62607
294.6828, 29.43619
295.1649, 29.43311
295.6470, 29.63034
296.1292, 30.09961
296.6113, 30.95569
297.0934, 31.90527
297.5755, 32.55777
298.0576, 32.93134
298.5397, 33.16745
299.0219, 33.33780
299.5040, 33.42261
299.9861, 33.29694
300.4682, 32.80136
300.9503, 32.37903
301.4324, 32.69623
301.9146, 33.59775
302.3967, 34.41623
302.8788, 34.59277
303.3609, 34.50314
303.8430, 34.75427
304.3251, 35.49271
304.8073, 36.23758
305.2894, 36.65720
305.7715, 36.78943
306.2536, 36.70319
306.7357, 36.23212
307.2178, 35.62515
307.7000, 35.06946
308.1821, 34.58017
308.6642, 34.35379
309.1463, 34.72461
309.6284, 35.41504
310.1105, 35.99832
310.5927, 36.26697
311.0748, 36.36746
311.5569, 36.48709
312.0390, 36.62943
312.5211, 36.43320
313.0032, 35.23560
313.4854, 33.76523
313.9675, 32.81631
314.4496, 33.20361
314.9317, 33.68738
315.4138, 33.70114
315.8959, 33.29828
316.3781, 32.78607
316.8602, 32.28091
317.3423, 31.74210
317.8244, 31.15067
318.3065, 30.57941
318.7886, 29.84991
319.2708, 28.67862
319.7529, 27.27582
320.2350, 26.22910
320.7171, 25.97873
321.1992, 25.93588
321.6813, 25.82547
322.1635, 25.60001
322.6456, 25.31812
323.1277, 24.95627
323.6098, 24.54391
324.0919, 24.13040
324.5740, 23.84598
325.0562, 23.45377
325.5383, 22.87341
326.0204, 22.07614
326.5025, 21.19830
326.9846, 19.87915
327.4667, 18.64377
327.9489, 18.03668
328.4310, 19.05463
328.9131, 19.59885
329.3952, 19.29977
329.8773, 18.14661
330.3594, 16.74332
330.8416, 14.66782
331.3237, 12.72104
331.8058, 11.48999
332.2879, 11.28766
332.7700, 11.29480
333.2521, 11.65918
333.7343, 12.20517
334.2164, 12.00131
334.6985, 10.57959
335.1806, 9.137634
335.6627, 8.349457
336.1448, 8.475128
336.6270, 8.494812
337.1091, 8.427338
337.5912, 8.211365
338.0733, 7.672485
338.5554, 6.746521
339.0375, 5.734833
339.5197, 4.666412
340.0018, 3.530426
340.4839, 2.801453
340.9660, 2.557465
341.4481, 2.590393
341.9302, 2.750763
342.4124, 3.060516
342.8945, 3.143402
343.3766, 2.818390
343.8587, 2.177765
344.3408, 1.602600
344.8229, 1.099030
345.3051, 0.6434330
345.7872, 0.2558900
346.2693, 7.9773001E-02
346.7514, 0.5218510
347.2335, 1.151855
347.7156, 1.826752
348.1978, 2.255615
348.6799, 2.444824
349.1620, 2.501556
349.6441, 2.396240
350.1262, 2.212860
350.6083, 2.186737
351.0905, 2.385193
351.5726, 2.598785
352.0547, 2.481262
352.5368, 2.158875
353.0189, 2.013397
353.5010, 2.694916
353.9832, 3.446716
354.4653, 3.058899
354.9474, 1.432373
355.4295, 4.1168001E-02
355.9116, 0.4114380
356.3937, 1.690918
356.8759, 2.589142
357.3580, 2.340820
357.8401, 1.811768
358.3222, 1.614471
358.8043, 1.684540
359.2864, 1.635468
359.7686, 1.073303
360.2507, 0.4013670
360.7328, 2.3190000E-03
361.2149, 0.1758420
361.6970, 0.2445070
362.1791, 0.3005680
362.6613, 1.160339
363.1434, 1.651123
363.6255, 0.9646000
364.1076, 0.3261720
364.5897, 0.3869020
365.0718, 1.462128
365.5540, 2.389801
366.0361, 2.917175
366.5182, 3.206787
367.0003, 3.454742
367.4824, 3.403931
367.9645, 3.606567
368.4467, 4.327026
368.9288, 5.594635
369.4109, 6.593231
369.8930, 7.159271
370.3751, 7.594269
370.8572, 8.110687
371.3394, 8.865417
371.8215, 9.424011
372.3036, 9.590607
372.7857, 9.542969
373.2678, 9.964691
373.7499, 11.13333
374.2321, 12.27298
374.7142, 12.90976
375.1963, 12.79086
375.6784, 13.31647
376.1605, 14.72171
376.6426, 16.46420
377.1248, 17.64423
377.6069, 18.18958
378.0890, 18.66800
378.5711, 19.24948
379.0532, 19.92169
379.5353, 20.55524
380.0175, 21.14447
380.4996, 21.75113
380.9817, 22.55164
381.4638, 23.49030
381.9459, 24.04315
382.4280, 23.92078
382.9102, 23.59424
383.3923, 24.13837
383.8744, 25.46356
384.3565, 26.64761
384.8386, 26.75580
385.3207, 26.34851
385.8029, 26.75809
386.2850, 28.27750
386.7671, 29.74573
387.2492, 29.76489
387.7313, 28.81619
388.2134, 27.99570
388.6956, 27.70105
389.1777, 27.83640
389.6598, 28.53790
390.1419, 29.76245
390.6240, 30.80911
391.1061, 31.00543
391.5883, 30.91998
392.0704, 31.16983
392.5525, 32.20285
393.0346, 33.22205
393.5167, 33.87497
393.9988, 34.24023
394.4810, 34.54453
394.9631, 34.63284
395.4452, 34.86124
395.9273, 35.45667
396.4094, 36.57510
396.8915, 37.64026
397.3737, 38.53525
397.8558, 39.31979
398.3379, 40.06598
398.8200, 40.59363
399.3021, 41.27072
399.7842, 42.30157
400.2664, 43.67953
400.7485, 44.64713
401.2306, 44.89215
401.7127, 45.01700
402.1948, 45.34875
402.6769, 45.70761
403.1591, 46.71802
403.6412, 48.69943
404.1233, 51.19266
404.6054, 53.14838
405.0875, 54.51535
405.5696, 55.36401
406.0518, 55.59036
406.5339, 55.19006
407.0160, 55.13687
407.4981, 55.50122
407.9802, 56.07858
408.4623, 56.59311
408.9445, 57.03989
409.4266, 57.68274
409.9087, 58.68109
410.3908, 59.88272
410.8729, 60.84467
411.3550, 61.53357
411.8372, 62.16776
412.3193, 62.98447
412.8014, 64.03586
413.2835, 65.28940
413.7656, 66.66156
414.2477, 67.89294
414.7299, 68.79965
415.2120, 69.49707
415.6941, 70.04193
416.1762, 70.04388
416.6583, 70.09180
417.1404, 70.92786
417.6226, 72.56458
418.1047, 74.04160
418.5868, 74.69894
419.0689, 74.88901
419.5510, 75.00980
420.0331, 75.44360
420.5153, 75.58783
420.9974, 74.97589
421.4795, 73.85812
421.9616, 72.90796
422.4437, 72.55328
422.9258, 72.25156
423.4080, 71.69183
423.8901, 70.72253
424.3722, 69.95239
424.8543, 69.71820
425.3364, 69.57718
425.8185, 69.09491
426.3007, 67.85400
426.7828, 66.91608
427.2649, 66.69949
427.7470, 66.99625
428.2291, 66.34109
428.7112, 64.33014
429.1934, 62.06860
429.6755, 60.12732
430.1576, 58.59698
430.6397, 56.90164
431.1218, 54.90192
431.6039, 52.93280
432.0861, 51.74014
432.5682, 51.40887
433.0503, 50.47488
433.5324, 47.87231
434.0145, 44.37756
434.4966, 43.15213
434.9788, 44.27380
435.4609, 45.38705
435.9430, 44.23892
436.4251, 41.51154
436.9072, 39.08621
437.3893, 37.27597
437.8715, 35.88763
438.3536, 34.79935
438.8357, 33.96713
439.3178, 33.26892
439.7999, 32.99075
440.2820, 32.58887
440.7642, 31.35788
441.2463, 29.24319
441.7284, 27.37897
442.2105, 26.76227
442.6926, 26.49759
443.1747, 25.69891
443.6569, 23.23923
444.1390, 21.27292
444.6211, 21.27396
445.1032, 22.38165
445.5853, 22.10898
446.0674, 17.93289
446.5496, 14.12360
447.0317, 12.58868
447.5138, 14.45367
447.9959, 15.04929
448.4780, 13.55197
448.9601, 11.37891
449.4423, 9.890961
449.9244, 9.411133
450.4065, 8.980042
450.8886, 8.401581
451.3707, 7.772339
451.8528, 7.565491
452.3350, 7.949524
452.8171, 8.227753
453.2992, 7.969238
453.7813, 7.159393
454.2634, 6.306274
454.7455, 5.342224
455.2277, 4.538086
455.7098, 4.359558
456.1919, 4.714752
456.6740, 4.987854
457.1561, 4.983276
457.6382, 4.770691
458.1204, 4.459198
458.6025, 4.046478
459.0846, 3.527008
459.5667, 2.664734
460.0488, 1.785431
460.5309, 1.351654
461.0131, 1.492828
461.4952, 1.793030
461.9773, 2.147522
462.4594, 2.435181
462.9415, 2.480164
463.4236, 2.015198
463.9058, 1.478729
464.3879, 1.018616
464.8700, 0.6441040
465.3521, 0.3370970
465.8342, 4.4585999E-02
466.3163, 0.1527710
466.7985, 0.2008670
467.2806, 6.8049999E-03
467.7627, 0.1759950
468.2448, 0.3641360
468.7269, 0.4813230
469.2090, 0.3654170
469.6912, 0.2433170
470.1733, 0.5964360
470.6554, 0.3860470
471.1375, 0.2898250
471.6196, 0.4101870
472.1017, 0.2105410
472.5839, 0.8686830
473.0660, 1.013519
473.5481, 0.6369630
474.0302, 0.5445560
474.5123, 0.8710330
474.9944, 1.286407
475.4766, 1.292877
475.9587, 0.9322510
476.4408, 0.4739070
476.9229, 0.1476750
477.4050, 0.7026060
477.8871, 0.6920780
478.3693, 0.1736450
478.8514, 0.3528440
479.3335, 0.6087040
479.8156, 0.6413570
480.2977, 0.4620060
480.7798, 5.8502000E-02
481.2620, 0.4122920
481.7441, 0.7665710
482.2262, 1.154297
482.7083, 1.800507
483.1904, 3.276886
483.6725, 4.543823
484.1547, 5.079987
484.6368, 4.942322
485.1189, 4.952209
485.6010, 5.031738
486.0831, 5.412384
486.5652, 6.257080
487.0474, 8.015991
487.5295, 9.218140
488.0116, 9.575012
488.4937, 9.587433
488.9758, 9.968842
489.4579, 10.83585
489.9401, 11.73428
490.4222, 12.60886
490.9043, 13.42615
491.3864, 14.01331
491.8685, 14.33722
492.3506, 14.67566
492.8328, 15.26810
493.3149, 16.04947
493.7970, 16.75311
494.2791, 17.37250
494.7612, 17.86499
495.2433, 18.11102
495.7255, 18.19727
496.2076, 18.34137
496.6897, 18.59830
497.1718, 18.97583
497.6539, 19.49445
498.1360, 20.14169
498.6182, 20.87860
499.1003, 21.98587
499.5824, 22.96613
500.0645, 23.32895
500.5466, 22.83890
501.0287, 22.60083
501.5109, 23.10092
501.9930, 23.92868
502.4751, 24.66913
502.9572, 25.30008
503.4393, 25.79691
503.9214, 26.10455
504.4036, 26.26825
504.8857, 26.45297
505.3678, 26.67072
505.8499, 26.89474
506.3320, 27.13022
506.8141, 27.38409
507.2963, 27.58334
507.7784, 27.75830
508.2605, 27.80533
508.7426, 27.51065
509.2247, 26.90839
509.7068, 26.51761
510.1890, 26.44086
510.6711, 26.60107
511.1532, 27.19260
511.6353, 28.03275
512.1174, 28.25171
512.5995, 26.59216
513.0817, 24.49664
513.5638, 23.99008
514.0459, 25.03357
514.5280, 25.86307
515.0101, 25.09503
515.4922, 23.72668
515.9744, 22.72107
516.4565, 22.50519
516.9386, 22.20709
517.4207, 21.31354
517.9028, 20.19577
518.3849, 19.47382
518.8671, 20.06790
519.3492, 20.19971
519.8313, 19.12164
520.3134, 16.97598
520.7955, 15.87344
521.2776, 16.40103
521.7598, 17.07547
522.2419, 17.02441
522.7240, 16.08276
523.2061, 15.29041
523.6882, 14.68997
524.1703, 14.16458
524.6525, 13.59387
525.1346, 12.99094
525.6167, 12.31216
526.0988, 11.51114
526.5809, 10.68237
527.0630, 10.01627
527.5452, 9.467194
528.0273, 8.917084
528.5094, 8.251587
528.9915, 7.636353
529.4736, 7.225342
529.9557, 6.999603
530.4379, 6.730194
530.9200, 6.333649
531.4021, 5.869720
531.8842, 5.339722
532.3663, 4.584656
532.8484, 3.925323
533.3306, 3.514069
533.8127, 3.293091
534.2948, 3.116699
534.7769, 3.139709
535.2590, 3.014130
535.7411, 2.633392
536.2233, 1.988556
536.7054, 1.156921
537.1875, 9.5830001E-03
537.6696, 0.9920040
538.1517, 1.397919
538.6339, 1.166656
539.1160, 0.8855900
539.5981, 0.5704040
540.0802, 0.2922060
540.5623, 8.0719002E-02
541.0444, 3.0609000E-02
541.5266, 0.1218260
542.0087, 0.7382810
542.4908, 1.474823
542.9729, 1.891479
543.4550, 2.004913
543.9371, 1.896210
544.4193, 1.489594
544.9014, 0.9629820
545.3835, 0.3916320
545.8656, 0.2276000
546.3477, 0.6317140
546.8298, 0.4304810
547.3120, 0.1271670
547.7941, 0.1437680
548.2762, 0.9278260
548.7583, 1.505066
549.2404, 1.679077
549.7225, 1.639435
550.2047, 1.707153
550.6868, 1.935120
551.1689, 2.159729
551.6510, 2.293915
552.1331, 2.382904
552.6152, 2.789673
553.0974, 3.592651
553.5795, 4.344482
554.0616, 4.664185
554.5437, 4.650055
555.0258, 4.808594
555.5079, 5.158386
555.9901, 5.780579
556.4722, 7.247589
556.9543, 9.010223
557.4364, 9.809509
557.9185, 8.686981
558.4006, 7.459808
558.8828, 7.578430
559.3649, 8.688263
559.8470, 9.967834
560.3291, 11.43771
560.8112, 12.67279
561.2933, 13.36087
561.7755, 13.48325
562.2576, 13.77652
562.7397, 14.50497
563.2218, 15.28436
563.7039, 15.94464
564.1860, 16.49695
564.6682, 16.86752
565.1503, 16.91928
565.6324, 16.97342
566.1145, 17.51239
566.5966, 18.60873
567.0787, 19.59937
567.5609, 20.33441
568.0430, 20.91010
568.5251, 21.50992
569.0072, 22.13202
569.4893, 22.70404
569.9714, 23.14056
570.4536, 23.53030
570.9357, 24.00909
571.4178, 24.57205
571.8999, 25.14453
572.3820, 25.69540
572.8641, 26.21564
573.3463, 26.68719
573.8284, 27.09790
574.3105, 27.48352
574.7926, 27.60736
575.2747, 27.79691
575.7568, 28.47610
576.2390, 30.36731
576.7211, 31.83624
577.2032, 32.66177
577.6853, 32.94003
578.1674, 32.87704
578.6495, 32.26898
579.1317, 31.92245
579.6138, 32.20258
580.0959, 33.05597
580.5780, 34.15125
581.0601, 35.53439
581.5422, 36.75925
582.0244, 37.19717
582.5065, 37.21466
582.9886, 37.78714
583.4707, 39.13272
583.9528, 40.58649
584.4349, 41.40402
584.9171, 41.98428
585.3992, 42.92618
585.8813, 44.99426
586.3634, 46.86356
586.8455, 47.54355
587.3276, 47.56223
587.8098, 48.35315
588.2919, 50.67706
588.7740, 53.32895
589.2561, 56.13254
589.7382, 59.09839
590.2203, 61.37683
590.7025, 62.56580
591.1846, 63.74841
591.6667, 65.79437
592.1488, 68.81589
592.6309, 71.13501
593.1130, 72.63623
593.5952, 73.71442
594.0773, 74.50528
594.5594, 75.21686
595.0415, 76.74585
595.5236, 79.68787
596.0057, 82.79861
596.4879, 84.43405
596.9700, 85.15070
597.4521, 86.23306
597.9342, 88.82318
598.4163, 91.45520
598.8984, 93.43289
599.3806, 94.75006
599.8627, 95.52386
600.3448, 95.22568
600.8269, 94.84760
601.3090, 94.89792
601.7911, 95.54944
602.2733, 96.03961
602.7554, 96.51541
603.2375, 96.62503
603.7196, 95.81824
604.2017, 93.93784
604.6838, 92.74384
605.1660, 92.67432
605.6481, 92.80621
606.1302, 91.53320
606.6123, 89.10098
607.0944, 86.63950
607.5765, 84.43039
608.0587, 82.50958
608.5408, 81.18854
609.0229, 80.24326
609.5050, 78.81497
609.9871, 76.07516
610.4692, 73.03833
610.9514, 70.32248
611.4335, 67.96255
611.9156, 65.54608
612.3977, 63.00073
612.8798, 60.37210
613.3619, 57.69397
613.8441, 54.78125
614.3262, 52.16031
614.8083, 49.87326
615.2904, 47.77740
615.7725, 45.80023
616.2546, 43.97198
616.7368, 42.06274
617.2189, 39.97318
617.7010, 37.79227
618.1831, 35.66342
618.6652, 33.62103
619.1473, 31.73773
619.6295, 30.15054
620.1116, 28.71927
620.5937, 27.25885
621.0758, 25.74097
621.5579, 24.21390
622.0400, 22.69568
622.5222, 21.30670
623.0043, 20.07242
623.4864, 18.96719
623.9685, 18.11777
624.4506, 17.73911
624.9327, 17.46207
625.4149, 17.04721
625.8970, 16.48877
626.3791, 15.73273
626.8612, 14.65637
627.3433, 13.59595
627.8254, 13.10803
628.3076, 13.16425
628.7897, 13.16312
629.2718, 12.98331
629.7539, 12.62646
630.2360, 11.94278
630.7181, 11.06216
631.2003, 10.40961
631.6824, 10.37000
632.1645, 10.50690
632.6466, 10.52927
633.1287, 10.43784
633.6108, 10.30515
634.0930, 10.07498
634.5751, 9.871429
635.0572, 9.773987
635.5393, 9.804413
636.0214, 9.808929
636.5035, 9.710938
636.9857, 9.676422
637.4678, 9.875671
637.9499, 10.35843
638.4320, 10.73270
638.9141, 10.99603
639.3962, 11.08536
639.8784, 10.70828
640.3605, 10.02997
640.8426, 9.763489
641.3247, 10.22433
641.8068, 10.97302
642.2889, 11.81219
642.7711, 12.57001
643.2532, 12.86432
643.7353, 11.89124
644.2174, 11.02411
644.6995, 11.12830
645.1816, 12.03696
645.6638, 12.51837
646.1459, 12.08032
646.6280, 11.49179
647.1101, 10.95688
647.5922, 10.47974
648.0743, 10.07071
648.5565, 9.701202
649.0386, 9.480103
649.5207, 9.630157
650.0028, 10.08066
650.4849, 10.20261
650.9670, 9.930450
651.4492, 9.479279
651.9313, 8.846680
652.4134, 8.244995
652.8955, 8.196381
653.3776, 9.189575
653.8597, 9.926575
654.3419, 9.116241
654.8240, 7.638123
655.3061, 6.860046
655.7882, 8.112549
656.2703, 9.003448
656.7524, 8.837372
657.2346, 7.934784
657.7167, 7.201752
658.1988, 6.689270
658.6809, 6.231110
659.1630, 5.724457
659.6451, 5.220428
660.1273, 5.144714
660.6094, 5.516571
661.0915, 5.753998
661.5736, 5.325317
662.0557, 4.518646
662.5378, 3.955017
663.0200, 3.661194
663.5021, 3.235626
663.9842, 1.869202
664.4663, 0.5270540
664.9484, 0.2726900
665.4305, 1.754257
665.9127, 2.919647
666.3948, 3.241913
666.8769, 3.025162
667.3590, 2.567627
667.8411, 1.681549
668.3232, 0.9801790
668.8054, 0.5669710
669.2875, 0.3117830
669.7696, 3.2120001E-02
670.2517, 0.4695890
670.7338, 0.7769010
671.2159, 0.8786620
671.6981, 0.8189390
672.1802, 0.5481260
672.6623, 0.1476900
673.1444, 8.3968997E-02
673.6265, 0.1820370
674.1086, 0.5285190
674.5908, 0.5847930
675.0729, 0.4007260
675.5550, 0.3803560
676.0371, 0.7278290
676.5192, 1.193283
677.0013, 1.822174
677.4835, 2.690994
677.9656, 2.808899
678.4477, 1.806290
678.9298, 0.7294160
679.4119, 0.3739470
679.8940, 0.7502900
680.3762, 0.9070280
680.8583, 0.8009640
681.3404, 0.6254120
681.8225, 0.6709440
682.3046, 0.7864840
682.7867, 0.6135560
683.2689, 2.0676000E-02
683.7510, 0.6166690
684.2331, 0.6868900
684.7152, 0.5510250
685.1973, 0.6256100
685.6794, 1.302017
686.1616, 1.859116
686.6437, 2.120789
687.1258, 2.197632
687.6079, 2.276810
688.0900, 2.373627
688.5721, 2.438232
689.0543, 2.430588
689.5364, 2.404770
690.0185, 2.515625
690.5006, 2.761398
690.9827, 3.078522
691.4648, 3.465179
691.9470, 3.883438
692.4291, 4.311829
692.9112, 4.732178
693.3933, 5.047241
693.8754, 5.033966
694.3575, 5.031067
694.8397, 5.362610
695.3218, 6.098679
695.8039, 6.496063
696.2860, 6.243576
696.7681, 5.837082
697.2502, 5.471786
697.7324, 5.118927
698.2145, 4.969955
698.6966, 5.008102
699.1787, 5.301712
699.6608, 6.133698
700.1429, 7.338425
700.6251, 8.093155
701.1072, 8.264359
701.5893, 8.123138
702.0714, 7.735718
702.5535, 7.268600
703.0356, 6.953796
703.5178, 6.845032
703.9999, 6.935715
704.4820, 7.429062
704.9641, 8.064728
705.4462, 8.427795
705.9283, 8.312790
706.4105, 8.203552
706.8926, 8.176071
707.3747, 8.184052
707.8568, 8.030792
708.3389, 7.681808
708.8210, 7.663193
709.3032, 8.348465
709.7853, 9.294403
710.2674, 9.644333
710.7495, 9.464783
711.2316, 9.038025
711.7137, 8.013916
712.1959, 7.121902
712.6780, 7.102539
713.1601, 7.856506
713.6422, 8.479889
714.1243, 8.699783
714.6064, 8.738998
715.0886, 8.673111
715.5707, 8.509491
716.0528, 8.426086
716.5349, 8.479706
717.0170, 8.360825
717.4991, 7.704239
717.9813, 6.689774
718.4634, 6.692581
718.9455, 7.757980
719.4276, 8.858292
719.9097, 9.129303
720.3918, 8.957092
720.8740, 8.815720
721.3561, 8.742416
721.8382, 8.654388
722.3203, 8.514175
722.8024, 8.386795
723.2845, 8.313141
723.7667, 8.296249
724.2488, 8.209503
724.7309, 8.044678
725.2130, 7.857712
725.6951, 7.651398
726.1772, 7.414917
726.6594, 7.406174
727.1415, 7.710724
727.6236, 8.079361
728.1057, 8.227707
728.5878, 8.179001
729.0699, 7.946701
729.5521, 7.404617
730.0342, 6.886108
730.5163, 6.689651
730.9984, 6.669083
731.4805, 6.546570
731.9626, 5.839447
732.4448, 5.546432
732.9269, 6.156265
733.4090, 7.232834
733.8911, 7.492706
734.3732, 6.722534
734.8553, 5.929199
735.3375, 5.409042
735.8196, 5.112839
736.3017, 4.926895
736.7838, 4.847855
737.2659, 4.769836
737.7480, 4.580811
738.2302, 4.357269
738.7123, 4.136002
739.1944, 3.949951
739.6765, 3.877960
740.1586, 4.096390
740.6407, 4.293579
741.1229, 4.330399
741.6050, 4.177429
742.0871, 3.947388
742.5692, 3.556885
743.0513, 3.328308
743.5334, 3.533661
744.0156, 4.086853
744.4977, 4.254135
744.9798, 4.034821
745.4619, 3.804047
745.9440, 3.877579
746.4261, 4.097031
746.9083, 4.332886
747.3904, 4.580734
747.8725, 4.609238
748.3546, 4.105225
748.8367, 3.489655
749.3188, 3.017334
749.8010, 2.701294
750.2831, 2.634109
750.7652, 2.927734
751.2473, 3.293900
751.7294, 3.494827
752.2115, 3.534088
752.6937, 3.624741
753.1758, 3.804474
753.6579, 3.872818
754.1400, 3.501358
754.6221, 2.918945
755.1042, 2.500778
755.5864, 2.365356
756.0685, 2.273651
756.5506, 1.966614
757.0327, 1.702362
757.5148, 1.774033
757.9969, 2.722992
758.4791, 3.190643
758.9612, 2.978241
759.4433, 2.509659
759.9254, 2.346558
760.4075, 2.503067
760.8896, 2.450455
761.3718, 2.065735
761.8539, 1.564163
762.3360, 1.110779
762.8181, 0.7735290
763.3002, 0.7068940
763.7823, 1.047852
764.2645, 1.486191
764.7466, 2.029861
765.2287, 2.509842
765.7108, 2.670532
766.1929, 2.284409
766.6750, 1.836136
767.1572, 1.331863
767.6393, 0.8101960
768.1214, 0.2445220
768.6035, 0.3894960
769.0856, 0.5652310
769.5677, 2.9068001E-02
770.0499, 0.7584690
770.5320, 1.101563
771.0141, 1.121735
771.4962, 1.124252
771.9783, 1.438202
772.4604, 1.552048
772.9426, 0.8937680
773.4247, 0.1422730
773.9068, 0.6040650
774.3889, 0.2987980
774.8710, 0.7800900
775.3531, 0.3483580
775.8353, 0.6102910
776.3174, 0.9340060
776.7995, 0.5863800
777.2816, 0.2887120
777.7637, 0.3695220
778.2458, 0.5687710
778.7280, 0.3542180
779.2101, 0.1272130
779.6922, 0.4159390
780.1743, 2.6860000E-03
780.6564, 0.3767090
781.1385, 0.2359770
781.6207, 0.2815090
782.1028, 0.5199740
782.5849, 0.2507480
783.0670, 9.9330004E-03
783.5491, 0.1820530
784.0313, 0.2319950
784.5134, 5.5298001E-02
784.9955, 0.6843570
785.4776, 1.203537
785.9597, 1.290688
786.4418, 1.221466
786.9240, 1.510338
787.4061, 2.044983
787.8882, 2.417282
788.3703, 2.270294
788.8524, 2.057968
789.3345, 2.039719
789.8167, 2.180527
790.2988, 2.147224
790.7809, 1.733414
791.2630, 1.523354
791.7451, 1.773659
792.2272, 2.373581
792.7094, 2.927483
793.1915, 3.424545
793.6736, 3.631653
794.1557, 3.108963
794.6378, 2.408699
795.1199, 2.348595
795.6021, 2.791008
796.0842, 3.064896
796.5663, 2.642479
797.0484, 2.221161
797.5305, 1.983238
798.0126, 1.970375
798.4948, 2.672836
798.9769, 4.569351
799.4590, 5.967827
799.9411, 5.963799
800.4232, 4.951164
800.9053, 4.383057
801.3875, 4.237564
801.8696, 4.283707
802.3517, 4.360893
802.8338, 4.581192
803.3159, 5.190468
803.7980, 6.101021
804.2802, 6.792892
804.7623, 6.800385
805.2444, 6.879387
805.7265, 7.401466
806.2086, 8.282082
806.6907, 8.754440
807.1729, 8.745934
807.6550, 8.605553
808.1371, 8.412323
808.6192, 8.245071
809.1013, 8.394753
809.5834, 8.797737
810.0656, 9.087807
810.5477, 8.890648
811.0298, 8.641174
811.5119, 8.738564
811.9940, 9.118370
812.4761, 9.189682
812.9583, 8.429550
813.4404, 7.902473
813.9225, 7.974792
814.4046, 8.564316
814.8867, 9.219254
815.3688, 9.953690
815.8510, 10.43901
816.3331, 10.38538
816.8152, 10.04507
817.2973, 9.686913
817.7794, 9.369904
818.2615, 9.353775
818.7437, 10.23332
819.2258, 10.99608
819.7079, 11.03435
820.1900, 10.45069
820.6721, 10.15643
821.1542, 10.21277
821.6364, 10.46886
822.1185, 10.99832
822.6006, 11.63290
823.0827, 11.68855
823.5648, 11.24023
824.0469, 10.93028
824.5291, 11.43279
825.0112, 11.95740
825.4933, 11.41687
825.9754, 10.23183
826.4575, 9.711235
826.9396, 11.19564
827.4218, 12.42143
827.9039, 12.65566
828.3860, 12.16197
828.8681, 11.86304
829.3502, 11.77853
829.8323, 11.81074
830.3145, 11.90028
830.7966, 12.06916
831.2787, 12.53615
831.7608, 13.17113
832.2429, 13.60616
832.7250, 13.26521
833.2072, 12.92654
833.6893, 13.21545
834.1714, 13.84506
834.6535, 13.93366
835.1356, 12.88024
835.6177, 12.19336
836.0999, 12.30534
836.5820, 12.81814
837.0641, 12.65732
837.5462, 11.88390
838.0283, 11.33592
838.5104, 11.32944
838.9926, 11.55212
839.4747, 11.77305
839.9568, 11.94080
840.4389, 11.98093
840.9210, 11.65151
841.4031, 11.48597
841.8853, 11.80184
842.3674, 12.22025
842.8495, 12.16042
843.3316, 11.48410
843.8137, 11.21017
844.2958, 11.58971
844.7780, 12.17101
845.2601, 12.26611
845.7422, 12.03263
846.2243, 11.88677
846.7064, 11.98169
847.1885, 12.12372
847.6707, 12.34097
848.1528, 12.47282
848.6349, 12.29654
849.1170, 11.35044
849.5991, 10.99741
850.0812, 11.55017
850.5634, 12.27475
851.0455, 12.18069
851.5276, 11.37878
852.0097, 10.98656
852.4918, 11.20683
852.9739, 11.69392
853.4561, 12.30840
853.9382, 12.81824
854.4203, 12.95454
854.9024, 12.60730
855.3845, 12.07494
855.8666, 11.01922
856.3488, 10.20609
856.8309, 10.25635
857.3130, 11.28796
857.7951, 11.82211
858.2772, 11.79598
858.7593, 11.69958
859.2415, 12.08020
859.7236, 12.61344
860.2057, 12.67384
860.6878, 12.21338
861.1699, 11.86736
861.6520, 12.14488
862.1342, 12.45930
862.6163, 12.42094
863.0984, 11.99419
863.5805, 11.55035
864.0626, 11.06135
864.5447, 10.89057
865.0269, 11.42952
865.5090, 12.28617
865.9911, 12.20557
866.4732, 11.35320
866.9553, 10.57157
867.4374, 10.35354
867.9196, 10.35403
868.4017, 10.40704
868.8838, 10.49670
869.3659, 10.51747
869.8480, 10.32396
870.3301, 10.31258
870.8123, 10.77183
871.2944, 11.40646
871.7765, 11.01400
872.2586, 9.705734
872.7407, 8.640053
873.2228, 8.487206
873.7050, 8.630379
874.1871, 8.409538
874.6692, 7.998695
875.1513, 7.780243
875.6334, 8.107567
876.1155, 8.350372
876.5977, 8.357208
877.0798, 8.254921
877.5619, 8.300079
878.0440, 8.510483
878.5261, 8.608231
879.0082, 8.568787
879.4904, 8.320839
879.9725, 7.531311
880.4546, 6.533524
880.9367, 5.921417
881.4188, 5.961494
881.9009, 6.165977
882.3831, 6.637085
882.8652, 7.029480
883.3473, 6.957298
883.8294, 6.269402
884.3115, 5.680641
884.7936, 5.203163
885.2758, 4.917213
885.7579, 5.069542
886.2400, 5.438232
886.7221, 5.464233
887.2042, 5.059792
887.6863, 4.731117
888.1685, 4.925377
888.6506, 5.180336
889.1327, 5.112129
889.6148, 4.635818
890.0969, 4.461212
890.5790, 4.770584
891.0612, 4.890358
891.5433, 4.147156
892.0254, 2.905724
892.5075, 2.683601
892.9896, 3.357819
893.4717, 3.977058
893.9539, 3.983406
894.4360, 3.730980
894.9181, 3.315125
895.4002, 2.801262
895.8823, 2.562309
896.3644, 2.783501
896.8466, 2.975990
897.3287, 3.045662
897.8108, 2.979439
898.2929, 2.592392
898.7750, 1.974472
899.2571, 1.746094
899.7393, 2.510239
900.2214, 3.200989
900.7035, 2.713455
901.1856, 1.577675
901.6677, 0.6917570
902.1498, 0.3267360
902.6320, 0.1500090
903.1141, 0.2128600
903.5962, 0.3548580
904.0783, 0.3444670
904.5604, 0.1971740
905.0425, 7.2723001E-02
905.5247, 6.2409998E-03
906.0068, 5.3589001E-02
906.4889, 4.8064999E-02
906.9710, 3.9719000E-02
907.4531, 0.1053770
907.9352, 0.3065800
908.4174, 0.3359680
908.8995, 0.1123050
909.3816, 0.4216000
909.8637, 0.1066440
910.3458, 0.8246770
910.8279, 1.326752
911.3101, 1.394485
911.7922, 1.297623
912.2743, 1.109940
912.7564, 0.9485170
913.2385, 1.014954
913.7206, 1.273636
914.2028, 1.390991
914.6849, 1.044418
915.1670, 0.7783200
915.6491, 0.7927090
916.1312, 1.010742
916.6133, 1.126663
917.0955, 1.132187
917.5776, 1.098541
918.0597, 1.048004
918.5418, 0.9762270
919.0239, 0.8904570
919.5060, 0.7669370
919.9882, 0.5799100
920.4703, 9.6694998E-02
920.9524, 0.2509000
921.4345, 0.7786250
921.9166, 2.000198
922.3987, 2.002884
922.8809, 0.6684570
923.3630, 2.1820001E-03
923.8451, 0.2995150
924.3272, 0.8211060
924.8093, 0.8771970
925.2914, 0.5993800
925.7736, 5.5328000E-02
926.2557, 0.8425290
926.7378, 1.380936
927.2199, 0.9430080
927.7020, 0.4676210
928.1841, 0.4752200
928.6663, 0.9682010
929.1484, 1.156921
929.6305, 1.023392
930.1126, 0.9163820
930.5947, 1.101089
931.0768, 1.434418
931.5590, 1.713303
932.0411, 1.962723
932.5232, 2.265884
933.0053, 2.984802
933.4874, 3.362305
933.9695, 3.022079
934.4517, 2.321564
934.9338, 2.194244
935.4159, 2.650742
935.8980, 3.132843
936.3801, 3.517303
936.8622, 3.747543
937.3444, 3.574860
937.8265, 3.239243
938.3086, 3.099289
938.7907, 3.260071
939.2728, 3.643768
939.7549, 4.522568
940.2371, 5.321594
940.7192, 5.488449
941.2013, 4.983398
941.6834, 4.712479
942.1655, 4.697449
942.6476, 5.036819
943.1298, 6.146927
943.6119, 7.444305
944.0940, 8.311325
944.5761, 8.718277
945.0582, 8.998032
945.5403, 9.239380
946.0225, 9.350845
946.5046, 9.186340
946.9867, 8.886078
947.4688, 9.064423
947.9509, 9.707291
948.4330, 10.65833
948.9152, 12.16501
949.3973, 13.48538
949.8794, 13.50102
950.3615, 12.93466
950.8436, 13.05083
951.3257, 15.27316
951.8079, 16.47067
952.2900, 15.98343
952.7721, 15.07362
953.2542, 15.37259
953.7363, 16.71422
954.2184, 17.81105
954.7006, 18.51456
955.1827, 19.04301
955.6648, 19.48953
956.1469, 19.91156
956.6290, 20.16881
957.1111, 20.17493
957.5933, 21.31552
958.0754, 24.39445
958.5575, 27.00038
959.0396, 27.75797
959.5217, 27.20801
960.0038, 27.13431
960.4860, 27.50842
960.9681, 28.15421
961.4502, 29.20390
961.9323, 30.24573
962.4144, 30.68245
962.8965, 30.99042
963.3787, 32.27623
963.8608, 35.21251
964.3429, 37.44231
964.8250, 38.58594
965.3071, 39.23198
965.7892, 39.97847
966.2714, 40.87524
966.7535, 42.14180
967.2356, 43.83072
967.7177, 45.47940
968.1998, 46.87576
968.6819, 48.05482
969.1641, 48.94707
969.6462, 49.54753
970.1283, 50.46851
970.6104, 51.76353
971.0925, 53.15863
971.5746, 54.57133
972.0568, 55.95975
972.5389, 57.42415
973.0210, 58.85025
973.5031, 59.80302
973.9852, 59.32373
974.4673, 59.28966
974.9495, 60.66724
975.4316, 62.57825
975.9137, 63.43950
976.3958, 63.19168
976.8779, 62.92337
977.3600, 62.77386
977.8422, 62.86267
978.3243, 63.58339
978.8064, 64.50198
979.2885, 64.99158
979.7706, 64.84650
980.2527, 64.84262
980.7349, 65.39066
981.2170, 65.82310
981.6991, 65.69928
982.1812, 65.08255
982.6633, 64.55142
983.1454, 64.10698
983.6276, 63.62724
984.1097, 63.10400
984.5918, 62.41022
985.0739, 61.43817
985.5560, 60.22765
986.0381, 58.84467
986.5203, 56.96338
987.0024, 55.71947
987.4845, 55.52339
987.9666, 55.49698
988.4487, 54.14035
988.9308, 51.92191
989.4130, 50.18756
989.8951, 49.19722
990.3772, 48.46146
990.8593, 48.08636
991.3414, 47.54936
991.8235, 46.39993
992.3057, 44.60902
992.7878, 42.81366
993.2699, 40.94693
993.7520, 39.39722
994.2341, 38.57236
994.7162, 38.04156
995.1984, 37.03186
995.6805, 35.70193
996.1626, 34.50661
996.6447, 33.73386
997.1268, 32.95863
997.6089, 32.10393
998.0911, 31.17928
998.5732, 30.15727
999.0553, 29.03685
999.5374, 28.11598
1000.020, 27.46609
1000.502, 26.78735
1000.984, 25.69038
1001.466, 24.51379
1001.948, 23.61765
1002.430, 23.07469
1002.912, 22.46432
1003.394, 21.76030
1003.876, 20.98570
1004.359, 20.14922
1004.841, 19.25060
1005.323, 18.24722
1005.805, 17.17946
1006.287, 16.23320
1006.769, 15.45332
1007.251, 14.85358
1007.733, 14.60526
1008.216, 14.46967
1008.698, 14.09462
1009.180, 13.36617
1009.662, 12.84694
1010.144, 12.60251
1010.626, 12.38129
1011.108, 11.98921
1011.590, 11.43381
1012.072, 10.56912
1012.555, 9.423203
1013.037, 8.675400
1013.519, 9.022720
1014.001, 9.274643
1014.483, 9.031235
1014.965, 8.416809
1015.447, 7.855804
1015.929, 7.335205
1016.411, 6.710587
1016.894, 5.878098
1017.376, 5.065506
1017.858, 4.380646
1018.340, 3.882736
1018.822, 3.691498
1019.304, 4.049118
1019.786, 4.117874
1020.268, 3.863174
1020.751, 3.420227
1021.233, 2.825821
1021.715, 2.138367
1022.197, 1.475525
1022.679, 0.8545380
1023.161, 0.3684540
1023.643, 2.2064000E-02
1024.125, 0.1326450
1024.607, 2.6489001E-02
1025.090, 0.2610630
1025.572, 0.6474000
1026.054, 1.155518
1026.536, 1.413742
1027.018, 1.343216
1027.500, 1.070786
1027.982, 0.5129850
1028.464, 5.1727001E-02
1028.947, 0.3062290
1029.429, 0.1757970
1029.911, 0.2452390
1030.393, 1.249329
1030.875, 1.949875
1031.357, 1.782410
1031.839, 1.018616
1032.321, 0.4189760
1032.803, 2.7145000E-02
1033.286, 1.4340000E-03
1033.768, 0.8461000
1034.250, 1.580963
1034.732, 1.621033
1035.214, 1.357941
1035.696, 1.283432
1036.178, 1.328400
1036.660, 2.183151
1037.143, 4.090042
1037.625, 5.548584
1038.107, 4.530228
1038.589, 2.674347
1039.071, 2.078613
1039.553, 2.820023
1040.035, 3.526947
1040.517, 3.888870
1041.000, 4.194336
1041.482, 4.434036
1041.964, 4.745117
1042.446, 5.554993
1042.928, 6.745804
1043.410, 7.809647
1043.892, 8.596771
1044.374, 9.244034
1044.856, 9.784805
1045.339, 10.23628
1045.821, 10.58089
1046.303, 10.77522
1046.785, 11.23544
1047.267, 11.98473
1047.749, 12.78526
1048.231, 13.50978
1048.713, 14.15822
1049.195, 14.57245
1049.677, 14.90216
1050.160, 15.56602
1050.642, 16.99503
1051.124, 18.36307
1051.606, 19.67075
1052.088, 20.75037
1052.570, 21.17813
1053.052, 21.16202
1053.534, 21.51120
1054.017, 22.32584
1054.499, 23.30057
1054.981, 24.33899
1055.463, 25.39656
1055.945, 26.47878
1056.427, 27.56358
1056.909, 28.55177
1057.391, 29.47391
1057.874, 29.92601
1058.356, 29.60989
1058.838, 29.11433
1059.320, 28.89197
1059.802, 29.06621
1060.284, 29.85623
1060.766, 31.71570
1061.248, 33.26831
1061.730, 34.48259
1062.213, 35.35583
1062.695, 35.68977
1063.177, 35.69225
1063.659, 36.22018
1064.141, 37.15179
1064.623, 37.90843
1065.105, 37.80272
1065.587, 37.91417
1066.070, 39.12311
1066.552, 40.55742
1067.034, 40.66949
1067.516, 39.39027
1067.998, 39.12575
1068.480, 40.25337
1068.962, 41.42621
1069.444, 41.17526
1069.927, 40.58932
1070.409, 40.76961
1070.891, 41.79523
1071.373, 42.35786
1071.855, 42.19101
1072.337, 42.25452
1072.819, 42.98254
1073.301, 43.88564
1073.783, 44.15120
1074.266, 43.90599
1074.748, 43.33734
1075.230, 42.23369
1075.712, 41.56343
1076.194, 41.98096
1076.676, 42.44334
1077.158, 42.27907
1077.640, 41.56290
1078.122, 41.07683
1078.604, 40.79251
1079.087, 40.47617
1079.569, 39.93454
1080.051, 39.38438
1080.533, 39.03488
1081.015, 38.74048
1081.497, 38.18225
1081.979, 37.24765
1082.461, 36.62877
1082.944, 36.39235
1083.426, 36.37836
1083.908, 36.71448
1084.390, 37.01756
1084.872, 36.87231
1085.354, 36.24982
1085.836, 35.18539
1086.318, 33.21147
1086.801, 31.71561
1087.283, 31.14551
1087.765, 31.03246
1088.247, 30.51996
1088.729, 29.75928
1089.211, 29.14005
1089.693, 28.72879
1090.175, 28.50536
1090.657, 28.79501
1091.140, 28.92955
1091.622, 28.51413
1092.104, 27.61430
1092.586, 26.65274
1093.068, 25.66843
1093.550, 25.04004
1094.032, 25.05368
1094.514, 25.19691
1094.997, 25.22179
1095.479, 25.07567
1095.961, 24.67938
1096.443, 23.95160
1096.925, 23.21472
1097.407, 22.41664
1097.889, 21.78479
1098.371, 21.70490
1098.854, 21.77309
1099.336, 21.37889
1099.818, 20.66940
1100.300, 20.23338
1100.782, 20.53854
1101.264, 20.45409
1101.746, 19.74088
1102.228, 18.81801
1102.710, 18.25536
1103.193, 17.94289
1103.675, 17.44110
1104.157, 16.69768
1104.639, 16.44673
1105.121, 17.87013
1105.603, 18.84259
1106.085, 18.38165
1106.567, 16.99458
1107.049, 16.20349
1107.531, 15.94157
1108.014, 15.86057
1108.496, 15.89975
1108.978, 16.01889
1109.460, 16.24968
1109.942, 16.46161
1110.424, 16.57881
1110.906, 16.60283
1111.388, 16.37051
1111.871, 15.81647
1112.353, 15.67863
1112.835, 16.85284
1113.317, 18.05511
1113.799, 17.64368
1114.281, 16.33562
1114.763, 15.30339
1115.245, 14.64888
1115.728, 14.69455
1116.210, 15.71808
1116.692, 16.57738
1117.174, 15.99191
1117.656, 14.74326
1118.138, 14.30243
1118.620, 14.51997
1119.102, 14.62036
1119.584, 14.14821
1120.067, 13.81830
1120.549, 13.80917
1121.031, 13.81778
1121.513, 13.33258
1121.995, 12.52847
1122.477, 12.01808
1122.959, 11.85881
1123.441, 11.74501
1123.924, 11.50082
1124.406, 11.25468
1124.888, 11.04625
1125.370, 10.89119
1125.852, 10.86064
1126.334, 10.94609
1126.816, 11.00972
1127.298, 11.06952
1127.781, 10.93515
1128.263, 10.13596
1128.745, 9.328415
1129.227, 9.181381
1129.709, 9.660583
1130.191, 9.689331
1130.673, 9.247253
1131.155, 8.723434
1131.637, 8.241364
1132.120, 7.757675
1132.602, 7.008011
1133.084, 6.313156
1133.566, 6.241837
1134.048, 7.180618
1134.530, 7.510910
1135.012, 7.114105
1135.494, 6.578339
1135.976, 6.254242
1136.458, 6.042786
1136.941, 5.824417
1137.423, 5.591095
1137.905, 5.321777
1138.387, 4.931427
1138.869, 4.611572
1139.351, 4.393814
1139.833, 4.231659
1140.315, 4.185333
1140.798, 4.137817
1141.280, 3.699905
1141.762, 2.932220
1142.244, 2.367340
1142.726, 2.364105
1143.208, 2.427704
1143.690, 2.520248
1144.172, 2.519760
1144.655, 2.066055
1145.137, 1.347015
1145.619, 1.152466
1146.101, 1.591949
1146.583, 1.878937
1147.065, 1.431702
1147.547, 0.8989870
1148.029, 0.5408480
1148.511, 0.3381500
1148.994, 0.3468630
1149.476, 0.5178680
1149.958, 0.3477780
1150.440, 0.4010010
1150.922, 0.8703610
1151.404, 2.2568000E-02
1151.886, 1.019745
1152.368, 1.074432
1152.851, 0.3004760
1153.333, 0.2452850
1153.815, 0.5620570
1154.297, 0.5487820
1154.779, 4.2719999E-03
1155.261, 0.5061040
1155.743, 0.4003300
1156.225, 5.0216999E-02
1156.708, 0.6192780
1157.190, 1.341888
1157.672, 1.646118
1158.154, 1.505859
1158.636, 1.260056
1159.118, 1.006104
1159.600, 0.8075260
1160.082, 0.8068080
1160.564, 0.8891140
1161.047, 0.8479000
1161.529, 0.5592190
1162.011, 0.4120030
1162.493, 0.4270630
1162.975, 0.4833530
1163.457, 0.5184020
1163.939, 0.5207210
1164.421, 0.3856510
1164.903, 0.2027590
1165.385, 0.2498020
1165.868, 0.8407210
1166.350, 1.138191
1166.832, 1.010551
1167.314, 0.7977520
1167.796, 0.9274900
1168.278, 1.153076
1168.760, 0.8934250
1169.242, 0.2402800
1169.725, 5.0156001E-02
1170.207, 0.7230610
1170.689, 1.181366
1171.171, 1.054070
1171.653, 0.6392900
1172.135, 0.2499080
1172.617, 7.1152002E-02
1173.099, 0.1712650
1173.582, 4.3343000E-02
1174.064, 1.5792999E-02
1174.546, 0.3543010
1175.028, 0.6462020
1175.510, 0.8101350
1175.992, 0.8179170
1176.474, 0.5280460
1176.956, 7.7933997E-02
1177.438, 0.1471560
1177.921, 7.5478002E-02
1178.403, 0.1942830
1178.885, 1.013397
1179.367, 1.520393
1179.849, 1.246063
1180.331, 0.5281450
1180.813, 0.3974610
1181.295, 0.7171100
1181.778, 0.9963990
1182.260, 1.072365
1182.742, 1.225761
1183.224, 1.842979
1183.706, 2.273102
1184.188, 2.044838
1184.670, 1.342850
1185.152, 1.183044
1185.635, 1.495026
1186.117, 1.942978
1186.599, 2.600830
1187.081, 2.951233
1187.563, 2.347923
1188.045, 1.664589
1188.527, 1.607864
1189.009, 2.127815
1189.491, 2.402908
1189.974, 2.454247
1190.456, 2.512505
1190.938, 2.692177
1191.420, 2.913116
1191.902, 3.181580
1192.384, 3.438652
1192.866, 3.642784
1193.348, 3.793304
1193.830, 3.722878
1194.313, 3.453667
1194.795, 3.284592
1195.277, 3.438263
1195.759, 3.695747
1196.241, 4.095917
1196.723, 4.432251
1197.205, 4.384369
1197.687, 3.935951
1198.169, 3.692001
1198.652, 3.681511
1199.134, 3.824455
1199.616, 4.263489
1200.098, 4.640404
1200.580, 4.632416
1201.062, 4.471558
1201.544, 4.557961
1202.026, 4.900200
1202.509, 5.144829
1202.991, 5.261574
1203.473, 5.378799
1203.955, 5.777718
1204.437, 6.014008
1204.919, 5.559967
1205.401, 4.798836
1205.883, 4.582153
1206.365, 4.913193
1206.848, 5.467712
1207.330, 6.228416
1207.812, 6.759575
1208.294, 6.470413
1208.776, 6.042557
1209.258, 6.055252
1209.740, 6.325768
1210.222, 6.427231
1210.705, 6.358597
1211.187, 6.116806
1211.669, 5.680534
1212.151, 5.293793
1212.633, 5.116425
1213.115, 5.117569
1213.597, 5.437653
1214.079, 5.909927
1214.562, 5.844765
1215.044, 5.249229
1215.526, 5.078522
1216.008, 5.648949
1216.490, 6.247482
1216.972, 6.323921
1217.454, 6.179359
1217.936, 5.926254
1218.418, 5.636749
1218.901, 5.759109
1219.383, 6.281158
1219.865, 6.699234
1220.347, 6.854561
1220.829, 6.915894
1221.311, 6.944031
1221.793, 6.980118
1222.275, 7.126160
1222.757, 7.331833
1223.240, 7.028061
1223.722, 6.252464
1224.204, 5.903954
1224.686, 6.466476
1225.168, 7.067085
1225.650, 7.099411
1226.132, 6.901779
1226.614, 6.738197
1227.096, 6.642357
1227.579, 6.746567
1228.061, 6.962242
1228.543, 7.016701
1229.025, 6.745934
1229.507, 6.539635
1229.989, 6.694092
1230.471, 6.931190
1230.953, 7.087898
1231.436, 7.126244
1231.918, 6.605331
1232.400, 5.661285
1232.882, 5.139938
1233.364, 5.656548
1233.846, 6.129524
1234.328, 5.921318
1234.810, 5.532669
1235.292, 5.254036
1235.775, 5.134926
1236.257, 5.674843
1236.739, 6.715927
1237.221, 7.263916
1237.703, 6.385918
1238.185, 5.673798
1238.667, 6.030411
1239.149, 6.564255
1239.632, 6.572113
1240.114, 6.176216
1240.596, 6.255295
1241.078, 6.692909
1241.560, 6.921509
1242.042, 6.442261
1242.524, 6.017471
1243.006, 5.862160
1243.489, 5.842690
1243.971, 5.784828
1244.453, 5.776016
1244.935, 6.516273
1245.417, 7.574371
1245.899, 8.029488
1246.381, 6.512459
1246.863, 5.710548
1247.345, 6.229240
1247.828, 7.094498
1248.310, 7.541183
1248.792, 7.640907
1249.274, 7.523460
1249.756, 7.274399
1250.238, 7.121994
1250.720, 7.274246
1251.202, 7.528633
1251.684, 7.942657
1252.167, 8.161018
1252.649, 7.714279
1253.131, 6.946815
1253.613, 6.448097
1254.095, 6.154747
1254.577, 6.103989
1255.059, 6.472511
1255.541, 6.772171
1256.023, 7.000168
1256.506, 7.126984
1256.988, 7.049988
1257.470, 6.836845
1257.952, 6.614578
1258.434, 6.420624
1258.916, 6.216377
1259.398, 6.111275
1259.880, 5.922760
1260.363, 5.568649
1260.845, 5.361206
1261.327, 5.769890
1261.809, 6.257858
1262.291, 6.241821
1262.773, 5.883850
1263.255, 5.615250
1263.737, 5.551216
1264.219, 5.498566
1264.702, 5.424721
1265.184, 5.363121
1265.666, 5.304237
1266.148, 5.272102
1266.630, 5.415932
1267.112, 5.567497
1267.594, 5.305641
1268.076, 4.655991
1268.559, 4.449242
1269.041, 4.724884
1269.523, 4.999344
1270.005, 4.944138
1270.487, 4.642700
1270.969, 3.933548
1271.451, 3.212631
1271.933, 3.232933
1272.416, 3.876083
1272.898, 3.993690
1273.380, 3.573547
1273.862, 3.333527
1274.344, 3.922768
1274.826, 4.329147
1275.308, 4.159943
1275.790, 3.821144
1276.272, 4.017662
1276.755, 4.500961
1277.237, 4.001366
1277.719, 2.629242
1278.201, 1.788010
1278.683, 2.573792
1279.165, 3.429321
1279.647, 4.209404
1280.129, 4.662636
1280.611, 4.381729
1281.094, 3.646667
1281.576, 2.863701
1282.058, 2.161339
1282.540, 1.930161
1283.022, 2.608833
1283.504, 3.119003
1283.986, 3.358131
1284.468, 3.401184
1284.950, 3.153839
1285.433, 2.856911
1285.915, 2.960617
1286.397, 3.333771
1286.879, 3.431755
1287.361, 3.197121
1287.843, 2.925819
1288.325, 2.617424
1288.807, 2.359497
1289.290, 2.197525
1289.772, 2.112457
1290.254, 2.225220
1290.736, 2.373207
1291.218, 1.918724
1291.700, 0.7650600
1292.182, 0.2582240
1292.664, 0.4860610
1293.146, 0.7586670
1293.629, 0.5412520
1294.111, 0.2488330
1294.593, 5.5310000E-03
1295.075, 0.1087950
1295.557, 0.1607740
1296.039, 0.7488020
1296.521, 1.306633
1297.003, 1.775101
1297.486, 1.891304
1297.968, 1.358635
1298.450, 0.7657240
1298.932, 0.2299800
1299.414, 4.5090001E-02
1299.896, 6.8199001E-02
1300.378, 0.3945390
1300.860, 0.3872530
1301.343, 0.1658940
1301.825, 0.0000000E+00
##END=



