##NAMES=Lorandite
##RRUFFID=R110055
##IDEAL CHEMISTRY=TlAsS_2_
##LOCALITY= Xingren County, Qianxi'nan Autonomous Prefecture, Guizhou Province, China
##OWNER=RRUFF
##SOURCE=Don Doell
##DESCRIPTION=Red platy crystals and cleavages
##STATUS=The identification of this mineral has been confirmed by single-crystal X-ray diffraction.
##URL=rruff.info/R110055
157.5064, 0.0000000E+00
157.9885, 2.865723
158.4706, 7.849487
158.9528, 31.02209
159.4349, 57.87903
159.9170, 84.14001
160.3991, 111.5552
160.8812, 140.2623
161.3633, 169.0939
161.8455, 196.3436
162.3276, 224.4242
162.8097, 247.9253
163.2918, 263.8531
163.7739, 267.6359
164.2560, 268.0470
164.7382, 267.2513
165.2203, 265.5555
165.7024, 264.4252
166.1845, 263.7767
166.6666, 264.2363
167.1487, 266.2953
167.6309, 270.2109
168.1130, 275.5955
168.5951, 281.3641
169.0772, 287.8820
169.5593, 297.3517
170.0414, 312.2836
170.5236, 330.6246
171.0057, 349.7100
171.4878, 369.6196
171.9699, 389.4434
172.4520, 407.2247
172.9341, 423.2690
173.4163, 440.8246
173.8984, 463.7227
174.3805, 489.7183
174.8626, 514.3645
175.3447, 536.2611
175.8268, 556.3142
176.3090, 575.7472
176.7911, 594.3923
177.2732, 611.5010
177.7553, 617.3635
178.2374, 611.6057
178.7195, 603.2927
179.2017, 596.1337
179.6838, 589.2013
180.1659, 581.3669
180.6480, 572.6072
181.1301, 563.0924
181.6122, 552.3702
182.0944, 540.8243
182.5765, 529.7289
183.0586, 519.0535
183.5407, 509.2462
184.0228, 501.0449
184.5049, 494.6909
184.9871, 488.6270
185.4692, 479.8903
185.9513, 469.1580
186.4334, 460.9932
186.9155, 459.1664
187.3976, 461.6060
187.8798, 460.7770
188.3619, 455.7319
188.8440, 449.9343
189.3261, 449.0430
189.8082, 452.6342
190.2903, 455.7698
190.7725, 453.6243
191.2546, 447.8613
191.7367, 449.6418
192.2188, 460.8596
192.7009, 475.8535
193.1830, 485.3383
193.6652, 489.3051
194.1473, 491.8077
194.6294, 495.6792
195.1115, 500.5863
195.5936, 501.8936
196.0757, 498.8768
196.5579, 493.0214
197.0400, 487.6541
197.5221, 483.0785
198.0042, 476.0177
198.4863, 464.1792
198.9684, 447.5997
199.4506, 429.1066
199.9327, 408.5939
200.4148, 387.5299
200.8969, 368.2124
201.3790, 350.5137
201.8611, 335.0972
202.3433, 322.3525
202.8254, 311.6033
203.3075, 301.5442
203.7896, 292.9175
204.2717, 285.5760
204.7538, 277.5824
205.2360, 267.8494
205.7181, 260.1193
206.2002, 258.2633
206.6823, 260.9061
207.1644, 261.3912
207.6465, 258.7415
208.1287, 254.3247
208.6108, 253.2604
209.0929, 257.5482
209.5750, 262.7032
210.0571, 265.2581
210.5392, 263.2271
211.0214, 260.3676
211.5035, 257.1305
211.9856, 253.6482
212.4677, 250.4108
212.9498, 248.6882
213.4319, 246.3798
213.9141, 241.4342
214.3962, 233.1790
214.8783, 225.3187
215.3604, 216.2749
215.8425, 208.4465
216.3246, 202.8916
216.8067, 200.4628
217.2889, 198.0619
217.7710, 193.3501
218.2531, 184.9283
218.7352, 177.5450
219.2173, 171.8529
219.6994, 167.8047
220.1816, 164.5491
220.6637, 161.8895
221.1458, 159.6101
221.6279, 158.0199
222.1100, 157.9993
222.5921, 156.6985
223.0743, 153.3953
223.5564, 148.3685
224.0385, 143.0243
224.5206, 136.9010
225.0027, 131.7968
225.4848, 129.0798
225.9670, 130.2864
226.4491, 129.8099
226.9312, 126.7548
227.4133, 121.6819
227.8954, 116.9946
228.3775, 112.9541
228.8597, 109.2411
229.3418, 105.7949
229.8239, 103.0002
230.3060, 99.45288
230.7881, 94.45386
231.2702, 88.56079
231.7524, 84.88525
232.2345, 84.94971
232.7166, 85.07214
233.1987, 82.85217
233.6808, 76.46936
234.1629, 71.77808
234.6451, 69.69263
235.1272, 69.57397
235.6093, 68.66858
236.0914, 66.99451
236.5735, 64.52002
237.0556, 61.14380
237.5378, 56.43457
238.0199, 51.76880
238.5020, 46.97559
238.9841, 42.28247
239.4662, 38.85266
239.9483, 37.32935
240.4305, 36.25574
240.9126, 34.95715
241.3947, 33.71594
241.8768, 31.61230
242.3589, 28.01038
242.8410, 23.57593
243.3232, 20.73792
243.8053, 20.57092
244.2874, 20.52112
244.7695, 19.24548
245.2516, 16.04553
245.7337, 13.01831
246.2159, 9.814087
246.6980, 6.825195
247.1801, 5.592896
247.6622, 7.248535
248.1443, 8.883179
248.6264, 9.109253
249.1086, 7.503418
249.5907, 5.432739
250.0728, 2.545898
250.5549, 0.6789550
251.0370, 2.929321
251.5191, 3.833740
252.0013, 4.312012
252.4834, 4.445557
252.9655, 3.171997
253.4476, 4.548706
253.9297, 10.33984
254.4118, 17.96887
254.8940, 21.49536
255.3761, 18.97021
255.8582, 15.79749
256.3403, 14.28015
256.8224, 15.07654
257.3046, 15.40771
257.7867, 15.14563
258.2688, 14.54675
258.7509, 13.92419
259.2330, 12.83679
259.7151, 12.70569
260.1973, 14.30151
260.6794, 18.06299
261.1615, 21.69971
261.6436, 25.70911
262.1257, 29.13562
262.6078, 29.96301
263.0900, 27.00757
263.5721, 24.21948
264.0542, 23.07373
264.5363, 23.80847
265.0184, 24.32983
265.5005, 24.82898
265.9827, 24.83667
266.4648, 23.32019
266.9469, 19.51001
267.4290, 16.47351
267.9111, 15.37537
268.3932, 16.38672
268.8754, 16.77441
269.3575, 16.35706
269.8396, 15.64990
270.3217, 15.43042
270.8038, 15.94006
271.2859, 16.10327
271.7681, 15.50159
272.2502, 14.19971
272.7323, 13.41431
273.2144, 13.32214
273.6965, 13.47229
274.1786, 13.61450
274.6608, 13.88586
275.1429, 13.11523
275.6250, 10.22815
276.1071, 5.835449
276.5892, 4.983521
277.0714, 8.597534
277.5535, 13.24646
278.0356, 15.45483
278.5177, 14.91016
278.9998, 15.36023
279.4819, 18.07349
279.9641, 22.27429
280.4462, 24.27417
280.9283, 23.66382
281.4104, 22.62939
281.8925, 23.31384
282.3746, 25.75439
282.8568, 26.86951
283.3389, 25.94116
283.8210, 23.49670
284.3031, 20.77441
284.7852, 17.66052
285.2673, 14.76025
285.7495, 12.69226
286.2316, 11.33325
286.7137, 9.326538
287.1958, 6.379272
287.6779, 2.841309
288.1600, 0.2862550
288.6422, 2.980103
289.1243, 6.569580
289.6064, 11.90930
290.0885, 18.81543
290.5706, 26.13818
291.0527, 33.75159
291.5349, 41.71350
292.0170, 49.90649
292.4991, 58.28931
292.9812, 67.73499
293.4633, 78.89282
293.9454, 91.41016
294.4276, 104.0372
294.9097, 116.5054
295.3918, 129.3347
295.8739, 142.7517
296.3560, 156.8064
296.8381, 172.5236
297.3203, 190.7371
297.8024, 210.6553
298.2845, 230.8396
298.7666, 251.3091
299.2487, 272.5421
299.7308, 294.9587
300.2130, 318.7999
300.6951, 344.4020
301.1772, 372.2568
301.6593, 401.7731
302.1414, 432.1550
302.6235, 463.1146
303.1057, 496.2202
303.5878, 534.0189
304.0699, 574.5732
304.5520, 613.4034
305.0341, 647.4761
305.5162, 680.8494
305.9984, 717.9221
306.4805, 758.0945
306.9626, 800.2567
307.4447, 843.1453
307.9268, 887.3667
308.4089, 932.9546
308.8911, 979.6953
309.3732, 1028.477
309.8553, 1080.705
310.3374, 1135.520
310.8195, 1191.343
311.3016, 1245.206
311.7838, 1299.286
312.2659, 1356.666
312.7480, 1419.051
313.2301, 1482.662
313.7122, 1545.198
314.1943, 1607.874
314.6765, 1671.854
315.1586, 1740.095
315.6407, 1808.097
316.1228, 1874.036
316.6049, 1937.294
317.0870, 1998.552
317.5692, 2059.975
318.0513, 2118.517
318.5334, 2169.481
319.0155, 2209.285
319.4976, 2243.100
319.9797, 2273.089
320.4619, 2299.774
320.9440, 2320.634
321.4261, 2333.027
321.9082, 2339.613
322.3903, 2342.783
322.8724, 2343.044
323.3546, 2339.922
323.8367, 2332.658
324.3188, 2321.438
324.8009, 2309.043
325.2830, 2295.645
325.7651, 2281.317
326.2473, 2266.103
326.7294, 2251.395
327.2115, 2234.525
327.6936, 2213.887
328.1757, 2190.570
328.6578, 2169.065
329.1400, 2150.825
329.6221, 2133.458
330.1042, 2116.238
330.5863, 2103.123
331.0684, 2083.327
331.5505, 2054.331
332.0327, 2019.137
332.5148, 1984.708
332.9969, 1952.698
333.4790, 1919.146
333.9611, 1882.534
334.4432, 1842.778
334.9254, 1798.121
335.4075, 1747.821
335.8896, 1693.599
336.3717, 1637.250
336.8538, 1577.751
337.3359, 1519.376
337.8180, 1463.990
338.3001, 1411.902
338.7823, 1358.665
339.2644, 1303.704
339.7465, 1249.943
340.2286, 1200.277
340.7107, 1155.526
341.1928, 1112.873
341.6750, 1071.570
342.1571, 1032.661
342.6392, 1003.090
343.1213, 983.3926
343.6034, 968.7522
344.0855, 954.7871
344.5677, 941.8190
345.0498, 934.9471
345.5319, 934.5508
346.0140, 940.9648
346.4961, 954.7725
346.9782, 975.8425
347.4604, 1004.414
347.9425, 1040.690
348.4246, 1084.613
348.9067, 1134.757
349.3888, 1191.089
349.8709, 1253.502
350.3531, 1322.498
350.8352, 1397.646
351.3173, 1476.991
351.7994, 1561.421
352.2815, 1649.635
352.7636, 1739.665
353.2458, 1831.487
353.7279, 1926.808
354.2100, 2025.359
354.6921, 2128.582
355.1742, 2238.532
355.6563, 2357.223
356.1385, 2483.001
356.6206, 2613.327
357.1027, 2749.654
357.5848, 2895.259
358.0669, 3054.496
358.5490, 3224.194
359.0312, 3400.863
359.5133, 3585.894
359.9954, 3777.558
360.4775, 3978.546
360.9596, 4186.667
361.4417, 4393.718
361.9239, 4604.319
362.4060, 4809.268
362.8881, 5007.728
363.3702, 5203.140
363.8523, 5373.085
364.3344, 5516.588
364.8166, 5628.717
365.2987, 5704.419
365.7808, 5748.366
366.2629, 5747.832
366.7450, 5700.476
367.2271, 5606.166
367.7093, 5462.776
368.1914, 5263.331
368.6735, 5018.871
369.1556, 4733.732
369.6377, 4385.617
370.1198, 4032.565
370.6020, 3664.885
371.0841, 3292.079
371.5662, 2946.501
372.0483, 2628.401
372.5304, 2341.905
373.0125, 2088.255
373.4947, 1868.948
373.9768, 1684.424
374.4589, 1537.900
374.9410, 1421.460
375.4231, 1325.845
375.9052, 1253.033
376.3874, 1193.709
376.8695, 1146.929
377.3516, 1112.084
377.8337, 1084.759
378.3158, 1064.474
378.7979, 1051.885
379.2801, 1049.278
379.7622, 1056.982
380.2443, 1067.039
380.7264, 1077.876
381.2085, 1090.218
381.6906, 1106.509
382.1728, 1126.699
382.6549, 1148.491
383.1370, 1169.630
383.6191, 1190.842
384.1012, 1214.470
384.5833, 1241.106
385.0655, 1269.575
385.5476, 1299.173
386.0297, 1329.576
386.5118, 1358.242
386.9939, 1384.592
387.4760, 1408.517
387.9582, 1430.008
388.4403, 1449.250
388.9224, 1466.085
389.4045, 1482.592
389.8866, 1496.042
390.3687, 1502.495
390.8509, 1499.526
391.3330, 1490.404
391.8151, 1478.463
392.2972, 1462.682
392.7793, 1438.732
393.2614, 1404.243
393.7436, 1361.160
394.2257, 1308.902
394.7078, 1244.458
395.1899, 1178.808
395.6720, 1117.753
396.1541, 1057.645
396.6363, 992.5925
397.1184, 916.6594
397.6005, 839.7330
398.0826, 763.2864
398.5647, 686.6489
399.0468, 617.1892
399.5290, 557.7349
400.0111, 504.7004
400.4932, 455.0122
400.9753, 407.4769
401.4574, 364.7294
401.9395, 329.0199
402.4217, 298.8114
402.9038, 267.4009
403.3859, 232.1057
403.8680, 199.5070
404.3501, 173.0723
404.8322, 154.6630
405.3144, 137.0496
405.7965, 120.2386
406.2786, 104.6244
406.7607, 90.97729
407.2428, 79.29956
407.7249, 69.02271
408.2071, 59.80493
408.6892, 51.71655
409.1713, 45.63879
409.6534, 41.63794
410.1355, 39.62585
410.6176, 39.79578
411.0998, 41.99036
411.5819, 45.80554
412.0640, 51.24243
412.5461, 57.39954
413.0282, 62.03320
413.5103, 65.66479
413.9925, 71.19238
414.4746, 80.81238
414.9567, 93.47156
415.4388, 107.6260
415.9209, 123.2111
416.4030, 139.6470
416.8852, 156.7408
417.3673, 174.3893
417.8494, 192.4392
418.3315, 211.2852
418.8136, 230.1646
419.2957, 248.6620
419.7779, 266.7820
420.2600, 285.2668
420.7421, 303.8870
421.2242, 323.3926
421.7063, 343.8112
422.1884, 364.6835
422.6706, 387.6771
423.1527, 415.3019
423.6348, 445.2141
424.1169, 473.0912
424.5990, 496.4369
425.0811, 519.7302
425.5633, 544.3142
426.0454, 570.4067
426.5275, 596.4757
427.0096, 624.0774
427.4917, 650.5975
427.9738, 673.9166
428.4560, 693.2283
428.9381, 711.1111
429.4202, 729.1381
429.9023, 745.5026
430.3844, 754.1344
430.8665, 753.9128
431.3487, 748.9760
431.8308, 741.5815
432.3129, 731.9532
432.7950, 716.8717
433.2771, 695.8564
433.7592, 670.7556
434.2414, 642.8724
434.7235, 612.3336
435.2056, 580.4888
435.6877, 547.2021
436.1698, 513.4323
436.6519, 479.7303
437.1341, 446.2452
437.6162, 415.4154
438.0983, 390.5685
438.5804, 368.8407
439.0625, 345.0151
439.5446, 317.6818
440.0268, 290.0245
440.5089, 263.9836
440.9910, 239.5953
441.4731, 217.4342
441.9552, 198.2817
442.4373, 180.6768
442.9195, 163.4485
443.4016, 146.5605
443.8837, 130.5858
444.3658, 115.6525
444.8479, 101.7344
445.3300, 89.05615
445.8122, 77.51685
446.2943, 67.12512
446.7764, 57.56128
447.2585, 49.00732
447.7406, 41.95776
448.2227, 37.81177
448.7049, 33.86310
449.1870, 29.41492
449.6691, 24.61261
450.1512, 18.70642
450.6333, 10.68207
451.1154, 2.847534
451.5976, 2.319580
452.0797, 3.775208
452.5618, 5.640808
453.0439, 8.691284
453.5260, 12.43066
454.0081, 15.95715
454.4903, 19.35529
454.9724, 22.16425
455.4545, 23.92712
455.9366, 24.78052
456.4187, 26.28076
456.9008, 28.54401
457.3830, 30.86206
457.8651, 32.28241
458.3472, 32.99261
458.8293, 33.25592
459.3114, 33.21045
459.7935, 32.81866
460.2757, 31.80713
460.7578, 30.33246
461.2399, 29.24725
461.7220, 29.04175
462.2041, 29.50732
462.6862, 30.58820
463.1684, 32.45386
463.6505, 34.01398
464.1326, 35.13232
464.6147, 35.40210
465.0968, 34.37439
465.5789, 30.09302
466.0611, 26.21063
466.5432, 23.59857
467.0253, 22.26794
467.5074, 22.09717
467.9895, 25.55078
468.4716, 28.15411
468.9538, 27.61200
469.4359, 22.24377
469.9180, 17.22070
470.4001, 11.80731
470.8822, 7.248169
471.3643, 5.774170
471.8465, 8.531128
472.3286, 11.10486
472.8107, 12.44348
473.2928, 12.63629
473.7749, 12.62939
474.2570, 12.46869
474.7392, 11.79010
475.2213, 10.22083
475.7034, 7.835022
476.1855, 4.957703
476.6676, 4.362617
477.1497, 1.846130
477.6319, 3.023560
478.1140, 2.709900
478.5961, 2.738403
479.0782, 3.784119
479.5603, 5.638794
480.0424, 8.517273
480.5246, 12.26428
481.0067, 15.59747
481.4888, 17.28259
481.9709, 18.39746
482.4530, 19.97241
482.9352, 22.50159
483.4173, 24.78656
483.8994, 26.09424
484.3815, 26.89301
484.8636, 27.92041
485.3457, 29.33997
485.8279, 30.98865
486.3100, 33.06146
486.7921, 35.56201
487.2742, 37.44604
487.7563, 38.04877
488.2384, 38.68445
488.7206, 40.13031
489.2027, 42.69037
489.6848, 45.43903
490.1669, 48.67499
490.6490, 51.75226
491.1311, 53.38391
491.6133, 53.32495
492.0954, 53.63605
492.5775, 54.93872
493.0596, 57.09216
493.5417, 59.77551
494.0238, 62.99518
494.5060, 66.03674
494.9881, 68.39868
495.4702, 70.14661
495.9523, 71.30072
496.4344, 71.72522
496.9165, 72.17004
497.3987, 73.14130
497.8808, 74.69153
498.3629, 76.95599
498.8450, 80.04523
499.3271, 83.84753
499.8092, 88.61591
500.2914, 94.18060
500.7735, 99.48254
501.2556, 106.4792
501.7377, 111.4386
502.2198, 111.5366
502.7019, 103.9138
503.1841, 98.13330
503.6662, 95.44995
504.1483, 95.18884
504.6304, 96.79138
505.1125, 102.0795
505.5946, 106.2759
506.0768, 108.1464
506.5589, 108.2930
507.0410, 109.8841
507.5231, 113.3123
508.0052, 117.0487
508.4873, 120.7323
508.9695, 124.3521
509.4516, 125.8188
509.9337, 124.7335
510.4158, 123.1671
510.8979, 123.5167
511.3800, 125.3971
511.8622, 127.3873
512.3443, 129.2852
512.8264, 130.8569
513.3085, 131.7246
513.7906, 132.0529
514.2728, 132.2178
514.7549, 132.2143
515.2370, 132.1522
515.7191, 132.0130
516.2012, 131.8210
516.6833, 132.3102
517.1655, 134.4293
517.6476, 137.0898
518.1297, 139.3853
518.6118, 141.6743
519.0939, 142.8994
519.5760, 142.1136
520.0582, 140.0959
520.5403, 138.7794
521.0224, 138.8172
521.5045, 138.5552
521.9866, 137.6324
522.4688, 136.0983
522.9509, 133.9345
523.4330, 130.8458
523.9151, 128.4312
524.3972, 128.6130
524.8793, 131.3896
525.3615, 131.4705
525.8436, 127.7438
526.3257, 122.2018
526.8078, 117.6274
527.2899, 114.2084
527.7720, 111.4741
528.2542, 109.4262
528.7363, 107.8530
529.2184, 106.4486
529.7005, 104.9067
530.1826, 102.9671
530.6647, 100.3549
531.1469, 97.56738
531.6290, 95.04395
532.1111, 92.98578
532.5932, 90.59564
533.0753, 86.69537
533.5574, 82.83801
534.0396, 80.65826
534.5217, 83.10382
535.0038, 84.16833
535.4859, 81.84393
535.9680, 77.26917
536.4501, 74.40387
536.9323, 74.44257
537.4144, 74.34406
537.8965, 72.66223
538.3786, 69.34619
538.8607, 68.39520
539.3428, 70.38696
539.8250, 72.61920
540.3071, 72.32983
540.7892, 69.83618
541.2713, 67.69458
541.7534, 66.15210
542.2355, 65.32666
542.7177, 66.12451
543.1998, 67.95526
543.6819, 68.87268
544.1640, 66.65393
544.6461, 64.07440
545.1282, 64.28717
545.6104, 66.75818
546.0925, 68.34399
546.5746, 66.22937
547.0567, 63.57550
547.5388, 62.65881
548.0209, 64.45551
548.5031, 65.77899
548.9852, 65.73608
549.4673, 64.93646
549.9494, 64.06793
550.4315, 63.24335
550.9136, 62.21191
551.3958, 60.58771
551.8779, 58.83618
552.3600, 58.40570
552.8421, 59.49011
553.3242, 61.12299
553.8063, 63.25482
554.2885, 65.69513
554.7706, 67.15155
555.2527, 67.66437
555.7348, 66.88873
556.2169, 63.14954
556.6990, 57.96039
557.1812, 55.34534
557.6633, 56.29633
558.1454, 58.51074
558.6275, 60.53168
559.1096, 62.14679
559.5917, 62.99463
560.0739, 61.83832
560.5560, 60.83405
561.0381, 61.73096
561.5202, 63.93787
562.0023, 64.77441
562.4844, 62.06183
562.9666, 59.16345
563.4487, 57.57880
563.9308, 57.53931
564.4129, 57.64331
564.8950, 58.21210
565.3771, 58.59869
565.8593, 58.15796
566.3414, 56.65076
566.8235, 55.23535
567.3056, 53.88983
567.7877, 52.82819
568.2698, 52.84833
568.7520, 53.85834
569.2341, 54.12067
569.7162, 52.85901
570.1983, 50.53650
570.6804, 46.99384
571.1625, 42.63727
571.6447, 40.12750
572.1268, 43.38684
572.6089, 48.08075
573.0910, 49.74921
573.5731, 47.58954
574.0552, 45.00970
574.5374, 42.47424
575.0195, 40.78906
575.5016, 40.68384
575.9837, 44.18988
576.4658, 46.89392
576.9479, 48.03027
577.4301, 48.19666
577.9122, 48.62115
578.3943, 49.71979
578.8764, 50.19226
579.3585, 49.56018
579.8406, 47.96228
580.3228, 46.16180
580.8049, 44.01746
581.2870, 42.57715
581.7691, 42.91650
582.2512, 44.61072
582.7333, 45.90466
583.2155, 46.68042
583.6976, 47.37396
584.1797, 48.51434
584.6617, 49.85577
585.1439, 50.92694
585.6260, 51.29755
586.1081, 51.93201
586.5902, 54.02008
587.0723, 56.74017
587.5544, 58.47321
588.0366, 56.46637
588.5187, 55.74451
589.0008, 58.46240
589.4829, 64.47699
589.9650, 69.92291
590.4471, 74.82666
590.9293, 79.09021
591.4114, 82.52008
591.8935, 85.01471
592.3756, 87.33563
592.8577, 89.20844
593.3398, 91.61591
593.8220, 96.04309
594.3041, 102.2196
594.7862, 108.0552
595.2683, 113.2286
595.7504, 117.8058
596.2325, 121.9178
596.7147, 125.6144
597.1968, 128.9103
597.6789, 132.0256
598.1610, 134.5916
598.6431, 136.7443
599.1252, 138.2789
599.6074, 138.2468
600.0895, 135.3147
600.5716, 131.6172
601.0537, 128.1287
601.5358, 125.0500
602.0179, 121.5873
602.5001, 117.4071
602.9822, 113.1230
603.4643, 109.2004
603.9464, 105.6745
604.4285, 102.2433
604.9106, 98.81049
605.3928, 95.56085
605.8749, 92.69666
606.3570, 90.19116
606.8391, 87.97528
607.3212, 85.95532
607.8033, 84.32050
608.2855, 83.33191
608.7676, 82.97235
609.2497, 83.07623
609.7318, 82.58307
610.2139, 83.16357
610.6960, 86.71985
611.1782, 93.23834
611.6603, 99.72406
612.1424, 105.7906
612.6245, 111.1226
613.1066, 115.2888
613.5887, 117.1957
614.0709, 120.2584
614.5530, 124.1973
615.0351, 129.6574
615.5172, 137.8648
615.9993, 149.7712
616.4814, 159.9277
616.9636, 166.9574
617.4457, 172.9355
617.9278, 181.9882
618.4099, 193.8843
618.8920, 206.2713
619.3741, 217.8209
619.8563, 229.6290
620.3384, 243.6505
620.8205, 259.5239
621.3026, 275.1467
621.7847, 287.7001
622.2668, 300.3984
622.7490, 316.4070
623.2311, 336.6624
623.7132, 355.3610
624.1953, 369.7323
624.6774, 382.6068
625.1595, 395.8998
625.6417, 408.7188
626.1238, 424.3241
626.6059, 444.3708
627.0880, 465.1658
627.5701, 481.2070
628.0522, 491.4628
628.5344, 501.6254
629.0165, 512.6718
629.4986, 524.4635
629.9807, 537.7055
630.4628, 552.0052
630.9449, 565.0115
631.4271, 574.0554
631.9092, 581.1751
632.3913, 588.7347
632.8734, 596.6057
633.3555, 604.0216
633.8376, 612.0369
634.3198, 618.7662
634.8019, 622.9601
635.2840, 624.2412
635.7661, 623.6359
636.2482, 620.8437
636.7303, 616.7275
637.2125, 611.9716
637.6946, 607.2130
638.1767, 599.4413
638.6588, 588.2004
639.1409, 574.7128
639.6230, 561.0148
640.1052, 546.9335
640.5873, 531.0749
641.0694, 513.1439
641.5515, 493.6074
642.0336, 472.9025
642.5157, 451.2659
642.9979, 429.2723
643.4800, 408.3015
643.9621, 386.4792
644.4442, 362.1222
644.9263, 335.6406
645.4084, 309.8593
645.8906, 285.6174
646.3727, 262.5109
646.8548, 239.9291
647.3369, 217.5553
647.8190, 198.2665
648.3011, 183.4009
648.7833, 170.0256
649.2654, 155.9716
649.7475, 140.8976
650.2296, 127.4863
650.7117, 115.7421
651.1938, 106.1076
651.6760, 99.91882
652.1581, 96.45148
652.6402, 93.76215
653.1223, 91.70282
653.6044, 89.47913
654.0865, 85.96332
654.5687, 81.79547
655.0508, 78.20251
655.5329, 76.65692
656.0150, 74.69659
656.4971, 71.13171
656.9792, 66.26715
657.4614, 61.74493
657.9435, 57.41248
658.4256, 53.72815
658.9077, 50.88763
659.3898, 48.87103
659.8719, 47.35803
660.3541, 46.46191
660.8362, 45.52753
661.3183, 44.07336
661.8004, 42.19641
662.2825, 40.26978
662.7646, 38.30890
663.2468, 36.40302
663.7289, 34.76581
664.2110, 33.18365
664.6931, 31.36932
665.1752, 29.21649
665.6573, 26.96204
666.1395, 24.39520
666.6216, 21.91260
667.1037, 20.00134
667.5858, 19.39221
668.0679, 18.53644
668.5500, 17.31580
669.0322, 15.77606
669.5143, 13.84540
669.9964, 11.34711
670.4785, 9.341858
670.9606, 8.293701
671.4427, 7.858459
671.9249, 6.998657
672.4070, 5.785583
672.8891, 4.772827
673.3712, 4.684021
673.8533, 4.722046
674.3354, 3.796143
674.8176, 1.975647
675.2997, 0.1755980
675.7818, 1.246460
676.2639, 2.437622
676.7460, 3.409363
677.2281, 4.085327
677.7103, 5.031494
678.1924, 6.979492
678.6745, 8.486328
679.1566, 8.062195
679.6387, 4.886475
680.1208, 3.914612
680.6030, 5.839355
681.0851, 8.734619
681.5672, 10.14429
682.0493, 10.37830
682.5314, 10.77856
683.0135, 11.94763
683.4957, 12.78967
683.9778, 13.70074
684.4599, 13.25604
684.9420, 15.97983
685.4241, 6.661194
685.9063, 19.64612
686.3884, 25.60431
686.8705, 24.98450
687.3526, 19.39648
687.8347, 20.25380
688.3168, 18.04356
688.7990, 15.32703
689.2811, 16.02155
689.7632, 16.11072
690.2453, 15.37897
690.7274, 15.54120
691.2095, 18.46100
691.6917, 23.01654
692.1738, 25.66357
692.6559, 26.44659
693.1380, 26.94836
693.6201, 28.63666
694.1022, 30.45227
694.5844, 31.20026
695.0665, 30.58148
695.5486, 30.06561
696.0307, 30.40576
696.5128, 30.90729
696.9949, 30.92865
697.4771, 29.88556
697.9592, 29.70392
698.4413, 31.00146
698.9234, 32.38159
699.4055, 31.82953
699.8876, 29.28735
700.3698, 27.36292
700.8519, 26.56696
701.3340, 26.46094
701.8161, 26.84644
702.2982, 27.45300
702.7803, 27.67493
703.2625, 27.97546
703.7446, 26.93323
704.2267, 22.52374
704.7088, 16.15826
705.1909, 10.97870
705.6730, 9.269409
706.1552, 7.354675
706.6373, 4.398987
707.1194, 0.5570070
707.6015, 3.507446
708.0836, 7.628540
708.5657, 12.28790
709.0479, 17.91833
709.5300, 24.22583
710.0121, 29.60919
710.4942, 34.17181
710.9763, 39.51917
711.4584, 47.45062
711.9406, 56.51886
712.4227, 64.81970
712.9048, 72.33319
713.3869, 80.33997
713.8690, 89.83807
714.3511, 99.73346
714.8333, 109.3857
715.3154, 118.3054
715.7975, 128.1540
716.2796, 139.1918
716.7617, 151.0457
717.2438, 163.7913
717.7260, 177.3770
718.2081, 191.1161
718.6902, 204.6575
719.1723, 219.0529
719.6544, 236.2994
720.1365, 255.1060
720.6187, 271.6461
721.1008, 284.2119
721.5829, 297.5858
722.0650, 316.7915
722.5471, 338.6321
723.0292, 359.3651
723.5114, 375.0344
723.9935, 392.2333
724.4756, 411.4651
724.9577, 433.0385
725.4398, 458.7451
725.9219, 489.9285
726.4041, 521.0078
726.8862, 551.9257
727.3683, 580.8300
727.8504, 600.1355
728.3325, 611.1306
728.8146, 622.5083
729.2968, 638.0569
729.7789, 655.8607
730.2610, 674.4049
730.7431, 693.4908
731.2252, 712.4758
731.7073, 732.2588
732.1895, 750.6826
732.6716, 766.6066
733.1537, 780.0601
733.6358, 792.6963
734.1179, 805.6171
734.6000, 816.2722
735.0822, 823.3169
735.5643, 827.0280
736.0464, 828.9868
736.5285, 829.1429
737.0106, 829.4871
737.4927, 831.9393
737.9749, 835.3516
738.4570, 838.3922
738.9391, 840.8154
739.4212, 841.2354
739.9033, 836.8019
740.3854, 831.5358
740.8676, 828.1582
741.3497, 827.2205
741.8318, 827.6055
742.3139, 831.3778
742.7960, 834.4204
743.2781, 833.5524
743.7603, 826.8185
744.2424, 824.0082
744.7245, 825.9841
745.2066, 829.4343
745.6887, 831.3306
746.1708, 831.4103
746.6530, 830.3875
747.1351, 828.4559
747.6172, 826.8439
748.0993, 826.3242
748.5814, 826.7075
749.0635, 827.6799
749.5457, 829.8125
750.0278, 831.5353
750.5099, 833.0151
750.9920, 833.7930
751.4741, 833.2109
751.9562, 831.1812
752.4384, 827.4999
752.9205, 821.4633
753.4026, 815.2510
753.8847, 813.0458
754.3668, 813.8179
754.8489, 813.5171
755.3311, 810.4321
755.8132, 806.8171
756.2953, 804.5265
756.7774, 803.0652
757.2595, 801.6409
757.7416, 798.1843
758.2238, 797.0708
758.7059, 799.5492
759.1880, 804.9546
759.6701, 812.2367
760.1522, 821.7656
760.6343, 832.0604
761.1165, 841.9393
761.5986, 853.4708
762.0807, 872.0405
762.5628, 897.1840
763.0449, 925.8259
763.5270, 956.3262
764.0092, 989.5908
764.4913, 1026.248
764.9734, 1066.552
765.4555, 1111.889
765.9376, 1163.403
766.4197, 1218.623
766.9019, 1275.727
767.3840, 1335.240
767.8661, 1400.775
768.3482, 1472.784
768.8303, 1548.691
769.3124, 1626.283
769.7946, 1706.535
770.2767, 1795.288
770.7588, 1892.400
771.2409, 1996.606
771.7230, 2107.569
772.2051, 2224.963
772.6873, 2347.589
773.1694, 2476.437
773.6515, 2613.688
774.1336, 2759.233
774.6157, 2915.847
775.0978, 3085.616
775.5800, 3268.037
776.0621, 3457.549
776.5442, 3653.130
777.0263, 3859.728
777.5084, 4079.691
777.9905, 4311.887
778.4727, 4546.963
778.9548, 4785.041
779.4369, 5028.527
779.9190, 5281.357
780.4011, 5538.533
780.8832, 5798.477
781.3654, 6058.883
781.8475, 6325.283
782.3296, 6598.889
782.8117, 6879.049
783.2938, 7166.794
783.7759, 7461.705
784.2581, 7769.151
784.7402, 8089.059
785.2223, 8415.852
785.7044, 8757.845
786.1865, 9105.217
786.6686, 9432.775
787.1508, 9741.024
787.6329, 10027.39
788.1150, 10305.10
788.5971, 10556.53
789.0792, 10765.50
789.5613, 10935.98
790.0435, 11039.35
790.5256, 11077.39
791.0077, 11036.60
791.4898, 10906.86
791.9719, 10685.50
792.4540, 10394.08
792.9362, 10032.45
793.4183, 9621.261
793.9004, 9165.513
794.3825, 8677.604
794.8646, 8200.176
795.3467, 7732.117
795.8289, 7286.481
796.3110, 6876.702
796.7931, 6494.389
797.2752, 6140.117
797.7573, 5810.485
798.2394, 5510.064
798.7216, 5242.720
799.2037, 4998.518
799.6858, 4775.964
800.1679, 4575.860
800.6500, 4387.477
801.1321, 4208.588
801.6143, 4039.248
802.0964, 3879.884
802.5785, 3729.867
803.0606, 3585.618
803.5427, 3446.894
804.0248, 3315.591
804.5070, 3194.876
804.9891, 3078.821
805.4712, 2963.026
805.9533, 2844.208
806.4354, 2731.323
806.9175, 2625.818
807.3997, 2524.239
807.8818, 2424.034
808.3639, 2325.990
808.8460, 2229.195
809.3281, 2133.582
809.8102, 2040.085
810.2924, 1947.342
810.7745, 1858.260
811.2566, 1776.946
811.7387, 1705.029
812.2208, 1637.497
812.7029, 1572.894
813.1851, 1511.689
813.6672, 1453.933
814.1493, 1399.359
814.6314, 1349.563
815.1135, 1305.631
815.5956, 1264.885
816.0778, 1225.834
816.5599, 1188.464
817.0420, 1153.772
817.5241, 1121.682
818.0062, 1092.617
818.4883, 1067.122
818.9705, 1044.053
819.4526, 1022.863
819.9347, 1003.639
820.4168, 984.5840
820.8989, 965.5531
821.3810, 946.4993
821.8632, 927.1860
822.3453, 907.6050
822.8274, 888.3806
823.3095, 870.0972
823.7916, 851.1938
824.2737, 830.0970
824.7559, 807.8280
825.2380, 786.8809
825.7201, 767.6204
826.2022, 748.1691
826.6843, 726.8091
827.1664, 705.6600
827.6486, 686.6650
828.1307, 670.2803
828.6128, 652.1597
829.0949, 631.2413
829.5770, 610.0120
830.0591, 589.7991
830.5413, 568.4449
831.0234, 549.3146
831.5055, 526.2610
831.9876, 503.4745
832.4697, 482.2629
832.9518, 462.1218
833.4340, 441.8553
833.9161, 421.5947
834.3982, 402.5864
834.8803, 386.1633
835.3624, 370.1960
835.8445, 353.5145
836.3267, 336.2898
836.8088, 320.5499
837.2909, 306.8025
837.7730, 292.8291
838.2551, 276.3088
838.7372, 258.9298
839.2194, 245.0615
839.7015, 234.4408
840.1836, 225.5012
840.6657, 220.3829
841.1478, 214.0156
841.6299, 202.2288
842.1121, 185.4963
842.5942, 170.5050
843.0763, 157.8195
843.5584, 146.5914
844.0405, 136.5755
844.5226, 127.6744
845.0048, 119.9536
845.4869, 113.4036
845.9690, 107.5063
846.4511, 103.7394
846.9332, 99.15540
847.4153, 89.29498
847.8975, 75.88745
848.3796, 63.89221
848.8617, 55.61890
849.3438, 48.45233
849.8259, 41.57135
850.3080, 35.29321
850.7902, 30.96277
851.2723, 29.04242
851.7544, 26.68750
852.2365, 23.11981
852.7186, 18.77155
853.2007, 13.72589
853.6829, 8.446350
854.1650, 4.121033
854.6471, 1.144348
855.1292, 0.8904420
855.6113, 1.457703
856.0934, 1.354431
856.5756, 2.107117
857.0577, 3.679260
857.5398, 6.534607
858.0219, 11.65637
858.5040, 16.90643
858.9861, 17.81421
859.4683, 15.32141
859.9504, 14.66626
860.4325, 17.55115
860.9146, 20.90802
861.3967, 21.75214
861.8788, 21.42010
862.3610, 21.65308
862.8431, 23.66278
863.3252, 24.54468
863.8073, 23.39984
864.2894, 21.77777
864.7715, 21.22119
865.2537, 21.79413
865.7358, 21.83673
866.2179, 21.14966
866.7000, 20.60083
867.1821, 21.26031
867.6642, 22.57703
868.1464, 23.71967
868.6285, 24.62122
869.1106, 25.08856
869.5927, 25.40710
870.0748, 25.05133
870.5569, 23.40338
871.0391, 20.07251
871.5212, 18.32062
872.0033, 18.43707
872.4854, 19.05255
872.9675, 19.50732
873.4496, 19.62268
873.9318, 18.40326
874.4139, 15.98126
874.8960, 14.03424
875.3781, 13.70142
875.8602, 14.02710
876.3423, 14.86725
876.8245, 16.08533
877.3066, 15.72400
877.7887, 12.96545
878.2708, 10.39752
878.7529, 9.027954
879.2350, 8.591675
879.7172, 8.499939
880.1993, 8.647827
880.6814, 8.725464
881.1635, 9.141418
881.6456, 8.891724
882.1277, 6.698242
882.6099, 3.208008
883.0920, 0.3414920
883.5741, 1.291260
884.0562, 2.523926
884.5383, 3.305237
885.0204, 3.836365
885.5026, 4.498108
885.9847, 5.286072
886.4668, 6.366211
886.9489, 7.899597
887.4310, 9.448853
887.9131, 10.45044
888.3953, 11.20728
888.8774, 12.16998
889.3595, 13.86346
889.8416, 15.18335
890.3237, 15.80048
890.8058, 16.16077
891.2880, 16.60840
891.7701, 17.14087
892.2522, 18.05927
892.7343, 19.41779
893.2164, 20.90826
893.6985, 22.39246
894.1807, 23.72443
894.6628, 24.48944
895.1449, 24.49811
895.6270, 24.98138
896.1091, 26.67786
896.5912, 28.73218
897.0734, 30.73285
897.5555, 32.73975
898.0376, 33.84595
898.5197, 33.84857
899.0018, 34.31854
899.4839, 37.24896
899.9661, 41.06696
900.4482, 42.38062
900.9303, 41.54504
901.4124, 41.27698
901.8945, 43.57898
902.3766, 46.06488
902.8588, 47.51758
903.3409, 48.14496
903.8230, 48.84131
904.3051, 49.46381
904.7872, 50.70172
905.2693, 53.09674
905.7515, 55.81299
906.2336, 56.92163
906.7157, 56.90454
907.1978, 57.16663
907.6799, 58.36359
908.1620, 59.87238
908.6442, 61.96716
909.1263, 63.99841
909.6084, 64.84705
910.0905, 63.95978
910.5726, 63.29163
911.0547, 62.84344
911.5369, 62.99274
912.0190, 64.57397
912.5011, 67.12305
912.9832, 69.46851
913.4653, 71.48926
913.9474, 72.81097
914.4296, 72.47803
914.9117, 71.79099
915.3938, 71.87354
915.8759, 72.91248
916.3580, 73.80383
916.8401, 74.53430
917.3223, 75.56253
917.8044, 77.12219
918.2865, 79.02869
918.7686, 81.35229
919.2507, 84.02359
919.7328, 85.77307
920.2150, 84.72360
920.6971, 83.35107
921.1792, 83.25497
921.6613, 84.47217
922.1434, 85.94647
922.6255, 87.62994
923.1077, 89.38336
923.5898, 91.06625
924.0719, 93.00586
924.5540, 96.75262
925.0361, 101.5264
925.5182, 104.1210
926.0004, 101.9676
926.4825, 99.65405
926.9646, 100.1894
927.4467, 102.3411
927.9288, 104.2508
928.4109, 104.9907
928.8931, 107.5196
929.3752, 112.4567
929.8573, 117.8093
930.3394, 121.0961
930.8215, 122.9869
931.3036, 126.1046
931.7858, 130.9120
932.2679, 135.8635
932.7500, 139.1280
933.2321, 142.5481
933.7142, 147.7694
934.1964, 155.1021
934.6785, 162.5830
935.1606, 170.1933
935.6427, 178.2873
936.1248, 186.4177
936.6069, 195.1879
937.0891, 206.7462
937.5712, 220.7893
938.0533, 235.1957
938.5354, 247.7085
939.0175, 261.3822
939.4996, 277.2674
939.9818, 295.8646
940.4639, 317.9008
940.9460, 343.9545
941.4281, 370.5954
941.9102, 396.7029
942.3923, 423.6575
942.8745, 453.4528
943.3566, 486.0648
943.8387, 520.8146
944.3208, 557.2988
944.8029, 595.6041
945.2850, 636.9271
945.7672, 679.6597
946.2493, 722.4105
946.7314, 764.5982
947.2135, 808.7830
947.6956, 854.7503
948.1777, 902.9788
948.6599, 953.9004
949.1420, 1006.498
949.6241, 1057.610
950.1062, 1107.334
950.5883, 1157.213
951.0704, 1211.624
951.5526, 1263.149
952.0347, 1308.634
952.5168, 1347.790
952.9989, 1379.014
953.4810, 1403.339
953.9631, 1415.109
954.4453, 1412.674
954.9274, 1396.966
955.4095, 1368.755
955.8916, 1328.659
956.3737, 1276.957
956.8558, 1210.639
957.3380, 1138.298
957.8201, 1059.047
958.3022, 977.0137
958.7843, 895.0679
959.2664, 811.7664
959.7485, 735.0167
960.2307, 665.2973
960.7128, 602.0880
961.1949, 545.7858
961.6770, 495.3752
962.1591, 449.7088
962.6412, 408.4610
963.1234, 374.1968
963.6055, 351.3510
964.0876, 331.5892
964.5697, 312.0269
965.0518, 292.8602
965.5339, 274.5589
966.0161, 257.0839
966.4982, 240.4146
966.9803, 223.5027
967.4624, 209.0342
967.9445, 202.2328
968.4266, 199.5359
968.9088, 195.2109
969.3909, 185.9949
969.8730, 177.4412
970.3551, 169.4224
970.8372, 162.7157
971.3193, 158.5163
971.8015, 156.5330
972.2836, 153.8613
972.7657, 150.2795
973.2478, 145.7166
973.7299, 138.8643
974.2120, 131.9478
974.6942, 127.2559
975.1763, 124.9652
975.6584, 121.2711
976.1405, 115.4133
976.6226, 109.3453
977.1047, 103.4663
977.5869, 98.07172
978.0690, 94.91772
978.5511, 93.27567
979.0332, 90.23303
979.5153, 83.55743
979.9974, 76.75812
980.4796, 71.39404
980.9617, 67.19434
981.4438, 63.73306
981.9259, 61.01767
982.4080, 59.12903
982.8901, 58.45667
983.3723, 57.14304
983.8544, 52.14441
984.3365, 45.57806
984.8186, 41.81610
985.3007, 41.14911
985.7828, 40.31207
986.2650, 36.74564
986.7471, 33.94229
987.2292, 34.13501
987.7113, 36.37805
988.1934, 35.20477
988.6755, 30.43622
989.1577, 26.36276
989.6398, 24.78775
990.1219, 24.43353
990.6040, 24.13901
991.0861, 23.89819
991.5682, 23.71313
992.0504, 23.94675
992.5325, 23.58701
993.0146, 22.00360
993.4967, 20.56351
993.9788, 20.95734
994.4609, 22.86868
994.9431, 23.59732
995.4252, 23.00208
995.9073, 21.32135
996.3894, 17.39084
996.8715, 13.56601
997.3536, 11.80396
997.8358, 12.06610
998.3179, 12.00085
998.8000, 11.58957
999.2821, 10.68628
999.7642, 8.988037
1000.246, 7.140717
1000.728, 6.726990
1001.211, 7.234131
1001.693, 7.318878
1002.175, 6.281708
1002.657, 5.407471
1003.139, 5.706024
1003.621, 6.096344
1004.103, 5.324677
1004.585, 2.837585
1005.068, 3.000763
1005.550, 6.156616
1006.032, 8.602722
1006.514, 6.377747
1006.996, 2.582214
1007.478, 1.239838
1007.960, 2.030273
1008.442, 2.307861
1008.924, 0.1993710
1009.407, 1.183228
1009.889, 0.8329470
1010.371, 4.267212
1010.853, 6.151794
1011.335, 6.545746
1011.817, 5.462219
1012.299, 2.608307
1012.781, 0.3474120
1013.263, 2.816345
1013.746, 4.362732
1014.228, 4.260406
1014.710, 2.053680
1015.192, 0.6736450
1015.674, 0.3175660
1016.156, 0.1407470
1016.638, 0.4167790
1017.120, 1.134796
1017.603, 1.431183
1018.085, 1.440948
1018.567, 1.640045
1019.049, 2.599884
1019.531, 3.326996
1020.013, 3.860260
1020.495, 3.767426
1020.977, 4.228950
1021.459, 3.845433
1021.942, 3.874481
1022.424, 2.875641
1022.906, 1.173187
1023.388, 0.3190310
1023.870, 1.7456001E-02
1024.352, 4.8859000E-02
1024.834, 0.5493470
1025.316, 0.1863100
1025.799, 1.902618
1026.281, 3.152863
1026.763, 1.984650
1027.245, 0.2174990
1027.727, 0.8554380
1028.209, 4.093719
1028.691, 5.663513
1029.173, 2.526733
1029.656, 0.1127320
1030.138, 0.8434750
1030.620, 3.086700
1031.102, 4.164154
1031.584, 3.860779
1032.066, 3.421234
1032.548, 2.812836
1033.030, 2.550018
1033.512, 3.324005
1033.995, 4.500793
1034.477, 5.525543
1034.959, 6.299438
1035.441, 6.309601
1035.923, 1.120911
1036.405, 2.005096
1036.887, 25.26715
1037.369, 53.80359
1037.851, 55.07349
1038.334, 35.98499
1038.816, 23.70828
1039.298, 25.74225
1039.780, 28.52386
1040.262, 22.82266
1040.744, 15.09491
1041.226, 10.33887
1041.708, 8.687042
1042.191, 8.683533
1042.673, 10.63138
1043.155, 11.57834
1043.637, 8.579163
1044.119, 4.836212
1044.601, 5.151489
1045.083, 8.201416
1045.565, 10.91055
1046.047, 11.80698
1046.530, 13.18237
1047.012, 15.69446
1047.494, 18.04791
1047.976, 18.59726
1048.458, 17.68002
1048.940, 16.78424
1049.422, 16.02795
1049.904, 15.43063
1050.386, 14.92258
1050.869, 14.63306
1051.351, 14.64667
1051.833, 14.95465
1052.315, 15.68600
1052.797, 16.94888
1053.279, 17.66931
1053.761, 17.37711
1054.243, 16.93329
1054.726, 17.67255
1055.208, 18.86362
1055.690, 19.37881
1056.172, 18.58408
1056.654, 18.44858
1057.136, 19.32355
1057.618, 20.49670
1058.100, 21.88235
1058.583, 23.18237
1059.065, 22.73309
1059.547, 20.93384
1060.029, 19.62729
1060.511, 19.93860
1060.993, 20.77994
1061.475, 22.19083
1061.957, 23.61301
1062.439, 24.25955
1062.922, 24.09360
1063.404, 23.78000
1063.886, 23.35529
1064.368, 22.81464
1064.850, 20.98581
1065.332, 19.90991
1065.814, 23.12653
1066.296, 30.18457
1066.778, 32.79446
1067.261, 28.33661
1067.743, 24.02859
1068.225, 21.50964
1068.707, 20.32846
1069.189, 19.88922
1069.671, 20.14297
1070.153, 21.21176
1070.635, 23.50259
1071.118, 25.03375
1071.600, 24.01190
1072.082, 23.04086
1072.564, 24.00842
1073.046, 26.57034
1073.528, 26.50351
1074.010, 24.06595
1074.492, 23.00928
1074.974, 27.57620
1075.457, 31.70041
1075.939, 29.41919
1076.421, 24.15283
1076.903, 21.87039
1077.385, 24.04587
1077.867, 25.47916
1078.349, 25.81891
1078.831, 25.88800
1079.313, 26.07159
1079.796, 26.60571
1080.278, 28.55179
1080.760, 31.59134
1081.242, 33.26321
1081.724, 30.81760
1082.206, 29.67264
1082.688, 31.63300
1083.170, 34.53619
1083.652, 33.50836
1084.135, 29.86975
1084.617, 29.12344
1085.099, 32.72818
1085.581, 35.93140
1086.063, 35.68500
1086.545, 34.32556
1087.027, 33.06509
1087.509, 31.99435
1087.992, 32.05963
1088.474, 33.27649
1088.956, 34.67957
1089.438, 36.41788
1089.920, 37.24173
1090.402, 34.34677
1090.884, 30.47507
1091.366, 29.71201
1091.849, 34.63831
1092.331, 36.92856
1092.813, 36.11328
1093.295, 34.24905
1093.777, 32.21964
1094.259, 30.47284
1094.741, 30.09891
1095.223, 30.70953
1095.705, 30.99887
1096.188, 29.23154
1096.670, 28.97186
1097.152, 31.55893
1097.634, 34.79279
1098.116, 35.80438
1098.598, 34.89084
1099.080, 32.09293
1099.562, 27.54889
1100.044, 28.68756
1100.527, 51.26895
1101.009, 69.48581
1101.491, 65.25052
1101.973, 46.34195
1102.455, 36.98181
1102.937, 37.19601
1103.419, 37.32578
1103.901, 34.87012
1104.384, 32.46634
1104.866, 34.08322
1105.348, 36.14203
1105.830, 34.23267
1106.312, 27.16498
1106.794, 23.90106
1107.276, 25.29877
1107.758, 27.06808
1108.240, 27.11981
1108.723, 26.58301
1109.205, 27.60818
1109.687, 29.33987
1110.169, 30.12119
1110.651, 28.76102
1111.133, 27.76169
1111.615, 27.25836
1112.097, 27.11334
1112.579, 27.29541
1113.062, 27.78427
1113.544, 28.00851
1114.026, 28.05853
1114.508, 28.38815
1114.990, 30.12216
1115.472, 31.02917
1115.954, 30.19403
1116.436, 28.38077
1116.919, 25.93109
1117.401, 23.01807
1117.883, 22.94907
1118.365, 26.02032
1118.847, 28.50098
1119.329, 26.79517
1119.811, 24.47388
1120.293, 23.91846
1120.776, 24.72495
1121.258, 25.45428
1121.740, 26.15100
1122.222, 26.15259
1122.704, 25.14737
1123.186, 24.13220
1123.668, 24.23599
1124.150, 24.77808
1124.632, 25.27869
1125.115, 25.70657
1125.597, 24.61920
1126.079, 21.26666
1126.561, 18.95679
1127.043, 19.29874
1127.525, 20.78412
1128.007, 21.22833
1128.489, 20.94406
1128.971, 20.45242
1129.454, 19.93011
1129.936, 18.99817
1130.418, 17.14120
1130.900, 15.84665
1131.382, 16.39011
1131.864, 18.02359
1132.346, 18.36758
1132.828, 17.77869
1133.311, 17.43643
1133.793, 18.37238
1134.275, 18.88235
1134.757, 18.40973
1135.239, 17.54315
1135.721, 16.65060
1136.203, 15.78476
1136.685, 15.54202
1137.167, 15.86911
1137.650, 16.11020
1138.132, 16.15756
1138.614, 15.70465
1139.096, 13.85809
1139.578, 11.75662
1140.060, 11.62305
1140.542, 13.53073
1141.024, 13.81451
1141.506, 12.03415
1141.989, 9.927307
1142.471, 8.309845
1142.953, 7.397766
1143.435, 7.920471
1143.917, 9.390015
1144.399, 9.412659
1144.881, 7.768677
1145.363, 6.124969
1145.846, 4.824402
1146.328, 3.809357
1146.810, 3.076813
1147.292, 2.584869
1147.774, 2.335541
1148.256, 2.348999
1148.738, 2.211853
1149.220, 1.748871
1149.703, 1.838043
1150.185, 3.159241
1150.667, 4.436432
1151.149, 3.144348
1151.631, 0.7555850
1152.113, 0.4053040
1152.595, 0.3620910
1153.077, 2.001038
1153.559, 5.468811
1154.042, 7.200592
1154.524, 4.264435
1155.006, 0.7518310
1155.488, 2.030823
1155.970, 0.7048950
1156.452, 0.5994570
1156.934, 1.651672
1157.416, 1.320068
1157.898, 1.240509
1158.381, 3.835480
1158.863, 4.885254
1159.345, 4.599518
1159.827, 3.375244
1160.309, 1.490570
1160.791, 8.4656000E-02
1161.273, 0.2151180
1161.755, 0.1979980
1162.238, 0.4762570
1162.720, 1.391510
1163.202, 2.222260
1163.684, 2.897644
1164.166, 2.885315
1164.648, 2.217651
1165.130, 1.451202
1165.612, 0.7997440
1166.094, 0.2117610
1166.577, 0.1870420
1167.059, 0.5888670
1167.541, 1.435455
1168.023, 2.657654
1168.505, 3.505920
1168.987, 3.911102
1169.469, 3.246460
1169.951, 4.072950
1170.433, 3.720398
1170.916, 4.766998
1171.398, 4.332062
1171.880, 4.660217
1172.362, 5.797729
1172.844, 5.982086
1173.326, 4.577759
1173.808, 3.468567
1174.290, 4.956238
1174.773, 7.041809
1175.255, 7.795685
1175.737, 7.521362
1176.219, 8.641418
1176.701, 11.28262
1177.183, 12.71295
1177.665, 12.04013
1178.147, 10.67865
1178.630, 9.413727
1179.112, 8.780640
1179.594, 9.670380
1180.076, 12.03519
1180.558, 13.09793
1181.040, 12.79999
1181.522, 13.24216
1182.004, 15.43857
1182.486, 17.56775
1182.969, 17.82376
1183.451, 17.28793
1183.933, 17.20206
1184.415, 17.75195
1184.897, 17.96265
1185.379, 17.80423
1185.861, 17.57541
1186.343, 17.11044
1186.825, 17.07462
1187.308, 18.88727
1187.790, 21.43137
1188.272, 22.93192
1188.754, 23.05573
1189.236, 22.07501
1189.718, 19.54272
1190.200, 18.20007
1190.682, 21.18417
1191.165, 25.22467
1191.647, 25.98029
1192.129, 24.69104
1192.611, 23.71097
1193.093, 23.06525
1193.575, 23.82553
1194.057, 26.51639
1194.539, 28.53369
1195.021, 26.98709
1195.504, 24.19019
1195.986, 22.79092
1196.468, 22.70819
1196.950, 23.84109
1197.432, 27.39551
1197.914, 29.24722
1198.396, 28.87698
1198.878, 27.73087
1199.360, 27.25693
1199.843, 26.88058
1200.325, 25.32977
1200.807, 22.94287
1201.289, 21.50092
1201.771, 22.01663
1202.253, 21.83279
1202.735, 20.44321
1203.217, 19.03098
1203.700, 19.44797
1204.182, 20.36700
1204.664, 20.00345
1205.146, 18.28949
1205.628, 15.35083
1206.110, 8.938110
1206.592, 6.826263
1207.074, 11.19202
1207.557, 17.39737
1208.039, 20.01382
1208.521, 20.40594
1209.003, 20.46872
1209.485, 20.35162
1209.967, 19.41962
1210.449, 17.00949
1210.931, 15.38846
1211.413, 15.21750
1211.896, 15.47070
1212.378, 14.56238
1212.860, 13.23871
1213.342, 12.81845
1213.824, 12.18933
1214.306, 11.50822
1214.788, 11.85147
1215.270, 10.94083
1215.752, 11.47971
1216.235, 10.60312
1216.717, 10.85767
1217.199, 8.831177
1217.681, 8.262482
1218.163, 6.826305
1218.645, 4.867921
1219.127, 4.938263
1219.609, 1.896912
1220.092, 1.286163
1220.574, 1.987488
1221.056, 3.029999
1221.538, 3.960632
1222.020, 3.897156
1222.502, 2.479553
1222.984, 2.025269
1223.466, 2.793732
1223.948, 3.975189
1224.431, 5.489685
1224.913, 6.790100
1225.395, 7.056366
1225.877, 6.571198
1226.359, 5.661865
1226.841, 4.260925
1227.323, 3.249115
1227.805, 2.779572
1228.287, 2.493256
1228.770, 2.492371
1229.252, 2.240448
1229.734, 0.3261110
1230.216, 1.955505
1230.698, 2.672577
1231.180, 1.142059
1231.662, 0.3208620
1232.144, 0.4567570
1232.627, 0.3664860
1233.109, 4.056580
1233.591, 2.446120
1234.073, 5.579742
1234.555, 1.567383
1235.037, 0.4908450
1235.519, 0.1722720
1236.001, 0.3762510
1236.484, 6.8970002E-02
1236.966, 0.1071780
1237.448, 0.4805910
1237.930, 0.8704220
1238.412, 0.8190000
1238.894, 0.9688981
1239.376, 2.535004
1239.858, 0.7117310
1240.340, 2.187958
1240.823, 1.800446
1241.305, 1.441986
1241.787, 2.237427
1242.269, 3.368317
1242.751, 4.363220
1243.233, 5.145935
1243.715, 5.564056
1244.197, 5.584656
1244.679, 5.876312
1245.162, 6.420868
1245.644, 6.216553
1246.126, 4.141876
1246.608, 2.112915
1247.090, 1.359619
1247.572, 1.544373
1248.054, 2.404175
1248.536, 4.020844
1249.019, 3.989319
1249.501, 2.541321
1249.983, 2.153259
1250.465, 5.781036
1250.947, 8.829468
1251.429, 8.542114
1251.911, 6.797363
1252.393, 4.889679
1252.875, 2.900391
1253.358, 2.943481
1253.840, 4.696228
1254.322, 6.040649
1254.804, 5.447357
1255.286, 4.788147
1255.768, 4.910431
1256.250, 4.996552
1256.732, 3.962097
1257.214, 4.424814
1257.697, 4.902423
1258.179, 4.622162
1258.661, 6.344086
1259.143, 6.645294
1259.625, 6.768829
1260.107, 6.774078
1260.589, 7.003357
1261.071, 7.975189
1261.554, 9.330261
1262.036, 10.01266
1262.518, 10.21094
1263.000, 10.13580
1263.482, 10.20490
1263.964, 9.278473
1264.446, 6.547455
1264.928, 4.382111
1265.411, 5.354584
1265.893, 7.941711
1266.375, 9.405151
1266.857, 9.558380
1267.339, 9.421753
1267.821, 10.36032
1268.303, 10.11273
1268.785, 8.097260
1269.267, 5.872650
1269.750, 5.506165
1270.232, 5.925629
1270.714, 6.357788
1271.196, 5.961395
1271.678, 4.932861
1272.160, 2.776337
1272.642, 2.929993
1273.124, 6.013092
1273.606, 8.355255
1274.089, 6.091553
1274.571, 3.200775
1275.053, 3.540833
1275.535, 5.403595
1276.017, 6.216980
1276.499, 5.485626
1276.981, 4.992157
1277.463, 4.910492
1277.946, 5.010803
1278.428, 5.283966
1278.910, 5.653076
1279.392, 5.618591
1279.874, 5.409668
1280.356, 5.047058
1280.838, 4.796692
1281.320, 4.886993
1281.802, 5.118256
1282.285, 5.405396
1282.767, 6.150696
1283.249, 6.316895
1283.731, 4.895355
1284.213, 3.288513
1284.695, 3.152313
1285.177, 4.228546
1285.659, 5.272614
1286.141, 6.231323
1286.624, 6.968201
1287.106, 7.939423
1287.588, 8.047119
1288.070, 6.849945
1288.552, 5.328308
1289.034, 3.307220
1289.516, 1.606781
1289.998, 2.420898
1290.481, 4.912964
1290.963, 7.094086
1291.445, 9.300903
1291.927, 8.899750
1292.409, 4.984406
1292.891, 2.038757
1293.373, 5.232727
1293.855, 9.626587
1294.338, 8.106750
1294.820, 3.502563
1295.302, 1.297943
1295.784, 2.586945
1296.266, 3.193695
1296.748, 3.010101
1297.230, 2.470062
1297.712, 2.267004
1298.194, 0.2558590
1298.677, 1.231506
1299.159, 0.4480510
1299.641, 0.2708783
1300.123, 0.7250670
1300.605, 5.0446000E-02
1301.087, 0.2458500
1301.569, 1.599976
1302.051, 1.826019
1302.533, 1.334747
1303.016, 0.0000000E+00
##END=



