##NAMES=Lourenswalsite
##RRUFFID=R060468
##IDEAL CHEMISTRY=(K,Ba)_2_Ti_4_(Si,Al)_6_O_14_(OH)_12_
##LOCALITY=Diamond Jo Quarry, Magnet Cove, Hot Spring County, Arkansas, USA
##OWNER=RRUFF
##SOURCE=Michael Scott
##DESCRIPTION=Rosettes of gray platy crystals
##STATUS=The identification of this mineral is not yet confirmed.
##URL=rruff.info/R060468
160.573, 0.000
161.055, 30.834
161.538, 68.451
162.020, 102.383
162.502, 50.229
162.984, 45.302
163.466, 75.169
163.948, 121.747
164.430, 116.241
164.912, 94.141
165.394, 63.206
165.876, 31.274
166.359, 29.771
166.841, 69.206
167.323, 53.119
167.805, 20.094
168.287, 122.079
168.769, 245.374
169.251, 383.023
169.733, 526.510
170.216, 677.505
170.698, 829.807
171.180, 978.813
171.662, 1125.340
172.144, 1267.075
172.626, 1393.192
173.108, 1513.220
173.590, 1652.732
174.072, 1842.677
174.555, 2051.629
175.037, 2243.175
175.519, 2408.902
176.001, 2570.008
176.483, 2747.885
176.965, 2939.623
177.447, 3127.230
177.929, 3293.981
178.412, 3450.127
178.894, 3613.407
179.376, 3787.119
179.858, 3963.838
180.340, 4142.042
180.822, 4318.277
181.304, 4474.058
181.786, 4588.348
182.268, 4671.563
182.751, 4748.768
183.233, 4824.385
183.715, 4896.486
184.197, 4960.949
184.679, 5018.285
185.161, 5064.445
185.643, 5092.892
186.125, 5105.830
186.607, 5119.055
187.090, 5144.143
187.572, 5167.716
188.054, 5151.956
188.536, 5094.804
189.018, 5026.356
189.500, 4967.161
189.982, 4917.940
190.464, 4893.306
190.947, 4801.580
191.429, 4710.727
191.911, 4620.684
192.393, 4531.297
192.875, 4442.429
193.357, 4226.090
193.839, 4071.800
194.321, 3932.605
194.803, 3768.328
195.286, 3592.313
195.768, 3523.984
196.250, 3455.494
196.732, 3386.852
197.214, 3318.062
197.696, 3249.148
198.178, 3180.084
198.661, 3110.926
199.143, 3041.646
199.625, 2984.287
200.107, 2944.018
200.589, 2918.029
201.071, 2904.697
201.553, 2906.675
202.035, 2907.235
202.517, 2895.713
202.999, 2870.036
203.482, 2850.823
203.964, 2833.071
204.446, 2826.940
204.928, 2854.178
205.410, 2915.264
205.892, 3004.980
206.374, 3102.742
206.857, 3192.999
207.339, 3242.614
207.821, 3292.116
208.303, 3341.492
208.785, 3390.762
209.267, 3439.913
209.749, 3488.958
210.231, 3537.879
210.713, 3586.681
211.195, 3635.368
211.678, 3683.943
212.160, 3732.390
212.642, 3780.753
213.124, 3828.969
213.606, 3877.079
214.088, 3925.078
214.570, 3972.957
215.052, 4054.389
215.535, 4001.777
216.017, 3974.806
216.499, 3987.044
216.981, 4049.605
217.463, 4115.116
217.945, 4132.922
218.427, 4041.676
218.909, 3981.857
219.391, 3972.541
219.874, 4006.215
220.356, 4031.840
220.838, 4040.811
221.320, 4056.279
221.802, 4092.458
222.284, 4147.766
222.766, 4227.525
223.248, 4338.057
223.731, 4479.090
224.213, 4593.701
224.695, 4663.113
225.177, 4737.032
225.659, 4853.851
226.141, 5030.206
226.623, 5208.713
227.105, 5386.471
227.587, 5562.781
228.070, 5701.561
228.552, 5797.159
229.034, 5860.612
229.516, 5898.633
229.998, 5904.135
230.480, 5898.072
230.962, 5888.072
231.444, 5874.581
231.926, 5828.812
232.409, 5755.742
232.891, 5645.668
233.373, 5486.916
233.855, 5274.266
234.337, 5021.286
234.819, 4715.871
235.301, 4349.967
235.783, 4024.692
236.266, 3757.683
236.748, 3515.353
237.230, 3259.991
237.712, 2963.695
238.194, 2700.484
238.676, 2495.397
239.158, 2352.461
239.640, 2204.704
240.122, 2046.365
240.605, 1888.684
241.087, 1742.804
241.569, 1600.397
242.051, 1483.137
242.533, 1405.101
243.015, 1372.469
243.497, 1315.578
243.980, 1215.236
244.462, 1106.464
244.944, 1028.224
245.426, 979.518
245.908, 971.123
246.390, 981.349
246.872, 995.902
247.354, 1009.620
247.836, 1023.034
248.318, 1036.496
248.801, 1050.081
249.283, 1061.613
249.765, 1089.331
250.247, 1131.589
250.729, 1188.920
251.211, 1245.283
251.693, 1302.379
252.176, 1362.873
252.658, 1430.929
253.140, 1514.904
253.622, 1592.684
254.104, 1657.479
254.586, 1706.878
255.068, 1769.839
255.550, 1854.663
256.032, 1945.071
256.514, 2021.015
256.997, 2081.535
257.479, 2131.214
257.961, 2175.458
258.443, 2216.741
258.925, 2223.323
259.407, 2187.827
259.889, 2125.311
260.371, 2050.552
260.854, 1956.711
261.336, 1864.046
261.818, 1776.106
262.300, 1692.927
262.782, 1612.735
263.264, 1535.698
263.746, 1460.519
264.228, 1390.347
264.711, 1332.120
265.193, 1256.334
265.675, 1149.654
266.157, 1012.044
266.639, 881.273
267.121, 758.440
267.603, 644.808
268.085, 542.651
268.567, 455.432
269.050, 371.647
269.532, 290.872
270.014, 213.463
270.496, 127.649
270.978, 28.334
271.460, 66.258
271.942, 131.653
272.424, 159.280
272.906, 195.190
273.389, 254.294
273.871, 219.094
274.353, 142.235
274.835, 72.704
275.317, 14.130
275.799, 29.322
276.281, 56.852
276.763, 73.409
277.246, 77.172
277.728, 70.687
278.210, 73.362
278.692, 90.715
279.174, 101.446
279.656, 102.177
280.138, 97.231
280.620, 33.429
281.103, 30.041
281.585, 93.224
282.067, 156.177
282.549, 218.947
283.031, 183.221
283.513, 116.109
283.995, 85.746
284.477, 36.424
284.959, 17.722
285.441, 74.355
285.924, 123.869
286.406, 165.499
286.888, 209.076
287.370, 263.375
287.852, 327.830
288.334, 392.831
288.816, 455.543
289.298, 518.659
289.781, 596.244
290.263, 688.868
290.745, 773.566
291.227, 829.724
291.709, 861.265
292.191, 881.814
292.673, 891.137
293.155, 894.597
293.638, 899.970
294.120, 907.146
294.602, 919.595
295.084, 962.741
295.566, 1015.390
296.048, 1008.917
296.530, 917.450
297.012, 793.577
297.494, 715.992
297.977, 678.536
298.459, 642.637
298.941, 589.948
299.423, 521.062
299.905, 431.465
300.387, 311.409
300.869, 194.076
301.351, 119.907
301.833, 81.060
302.316, 49.028
302.798, 10.543
303.280, 33.686
303.762, 90.308
304.244, 95.236
304.726, 29.635
305.208, 26.921
305.690, 69.493
306.172, 115.880
306.655, 105.721
307.137, 84.771
307.619, 50.972
308.101, 1.417
308.583, 51.857
309.065, 92.363
309.547, 131.218
310.030, 186.653
310.512, 269.614
310.994, 371.695
311.476, 494.004
311.958, 638.908
312.440, 776.960
312.922, 873.348
313.404, 958.590
313.886, 1074.361
314.369, 1257.189
314.851, 1458.915
315.333, 1647.950
315.815, 1824.212
316.297, 2010.619
316.779, 2216.328
317.261, 2436.228
317.743, 2668.490
318.225, 2906.115
318.708, 3161.111
319.190, 3439.374
319.672, 3741.087
320.154, 4049.029
320.636, 4345.232
321.118, 4653.662
321.600, 4991.905
322.082, 5356.574
322.565, 5760.631
323.047, 6168.100
323.529, 6598.853
324.011, 7158.844
324.493, 8001.605
324.975, 8882.580
325.457, 9670.521
325.939, 10301.720
326.422, 10901.981
326.904, 11439.729
327.386, 11941.992
327.868, 12514.062
328.350, 13179.822
328.832, 13901.257
329.314, 14660.718
329.796, 15467.634
330.278, 16285.980
330.760, 17104.607
331.243, 17926.857
331.725, 18779.090
332.207, 19697.658
332.689, 20616.477
333.171, 21494.791
333.653, 22332.861
334.135, 23165.209
334.617, 24006.623
335.100, 24827.805
335.582, 25572.629
336.064, 26235.629
336.546, 26832.008
337.028, 27370.789
337.510, 27847.453
337.992, 28245.254
338.474, 28583.656
338.957, 28823.770
339.439, 28924.533
339.921, 28878.926
340.403, 28716.102
340.885, 28441.637
341.367, 28064.527
341.849, 27618.926
342.331, 27096.129
342.813, 26523.711
343.296, 25918.150
343.778, 25274.834
344.260, 24563.346
344.742, 23763.691
345.224, 22919.979
345.706, 22154.271
346.188, 21466.812
346.670, 20792.277
347.152, 20047.719
347.635, 19265.963
348.117, 18584.402
348.599, 18038.172
349.081, 17564.074
349.563, 17077.111
350.045, 16584.955
350.527, 16120.472
351.009, 15705.662
351.491, 15337.205
351.974, 15019.786
352.456, 14754.119
352.938, 14518.208
353.420, 14288.496
353.902, 14070.785
354.384, 13876.094
354.866, 13688.516
355.349, 13541.764
355.831, 13493.475
356.313, 13550.850
356.795, 13598.499
357.277, 13541.624
357.759, 13432.691
358.241, 13341.615
358.723, 13295.725
359.205, 13276.135
359.688, 13286.572
360.170, 13322.442
360.652, 13339.007
361.134, 13299.355
361.616, 13236.229
362.098, 13179.548
362.580, 13165.359
363.062, 13134.284
363.544, 13085.191
364.027, 13008.061
364.509, 12870.639
364.991, 12616.035
365.473, 12334.178
365.955, 12077.048
366.437, 11884.052
366.919, 11646.002
367.401, 11348.454
367.884, 11000.650
368.366, 10622.125
368.848, 10197.814
369.330, 9758.853
369.812, 9303.261
370.294, 8816.501
370.776, 8367.066
371.258, 7999.226
371.741, 7647.560
372.223, 7230.422
372.705, 6685.809
373.187, 6189.224
373.669, 5790.724
374.151, 5486.126
374.633, 5134.532
375.115, 4706.570
375.597, 4273.445
376.079, 3897.750
376.562, 3586.037
377.044, 3285.127
377.526, 2991.714
378.008, 2702.575
378.490, 2409.653
378.972, 2104.356
379.454, 1828.931
379.936, 1617.416
380.419, 1466.039
380.901, 1294.944
381.383, 1086.382
381.865, 887.408
382.347, 810.612
382.829, 840.140
383.311, 829.951
383.793, 667.490
384.276, 417.786
384.758, 226.367
385.240, 100.787
385.722, 13.646
386.204, 59.367
386.686, 116.130
387.168, 83.994
387.650, 80.528
388.132, 93.872
388.615, 116.375
389.097, 77.333
389.579, 62.330
390.061, 117.356
390.543, 30.251
391.025, 19.082
391.507, 7.507
391.989, 41.754
392.471, 44.663
392.954, 26.444
393.436, 14.445
393.918, 37.235
394.400, 58.571
394.882, 52.819
395.364, 0.809
395.846, 30.658
396.328, 5.994
396.810, 44.196
397.293, 75.138
397.775, 35.656
398.257, 19.062
398.739, 70.934
399.221, 69.942
399.703, 4.828
400.185, 65.488
400.668, 123.971
401.150, 62.493
401.632, 25.855
402.114, 37.478
402.596, 123.442
403.078, 32.365
403.560, 52.667
404.042, 61.891
404.524, 62.267
405.007, 91.117
405.489, 152.793
405.971, 221.778
406.453, 298.948
406.935, 381.067
407.417, 456.219
407.899, 522.165
408.381, 605.262
408.863, 724.043
409.346, 872.106
409.828, 1006.536
410.310, 1126.008
410.792, 1245.048
411.274, 1365.406
411.756, 1493.999
412.238, 1662.313
412.720, 1898.539
413.203, 2160.996
413.685, 2391.767
414.167, 2594.901
414.649, 2792.730
415.131, 2993.000
415.613, 3200.643
416.095, 3421.786
416.577, 3666.310
417.060, 3904.667
417.542, 4115.922
418.024, 4305.835
418.506, 4492.371
418.988, 4676.502
419.470, 4860.215
419.952, 5041.336
420.434, 5220.928
420.916, 5400.303
421.398, 5596.081
421.881, 5786.135
422.363, 5952.504
422.845, 6066.359
423.327, 6183.213
423.809, 6324.471
424.291, 6484.744
424.773, 6618.639
425.255, 6716.788
425.738, 6795.364
426.220, 6858.108
426.702, 6872.310
427.184, 6937.505
427.666, 7083.265
428.148, 7264.358
428.630, 7390.027
429.112, 7431.754
429.595, 7489.607
430.077, 7604.187
430.559, 7774.941
431.041, 7912.659
431.523, 8009.030
432.005, 8100.604
432.487, 8239.638
432.969, 8424.052
433.451, 8564.090
433.934, 8626.211
434.416, 8648.323
434.898, 8712.375
435.380, 8816.498
435.862, 8929.929
436.344, 9028.272
436.826, 9122.470
437.308, 9239.542
437.790, 9387.123
438.273, 9537.068
438.755, 9652.102
439.237, 9748.416
439.719, 9857.882
440.201, 9986.585
440.683, 10139.246
441.165, 10334.434
441.647, 10568.788
442.129, 10786.359
442.612, 10933.021
443.094, 11061.228
443.576, 11216.712
444.058, 11450.904
444.540, 11649.718
445.022, 11765.792
445.504, 11827.072
445.987, 11910.492
446.469, 12049.218
446.951, 12196.524
447.433, 12331.401
447.915, 12439.344
448.397, 12579.025
448.879, 12772.070
449.361, 12974.129
449.843, 13136.007
450.326, 13244.280
450.808, 13351.104
451.290, 13465.674
451.772, 13585.574
452.254, 13704.696
452.736, 13827.047
453.218, 13938.026
453.700, 14008.418
454.182, 14041.652
454.665, 14129.960
455.147, 14295.720
455.629, 14477.600
456.111, 14579.913
456.593, 14604.993
457.075, 14596.128
457.557, 14546.035
458.039, 14478.136
458.522, 14462.691
459.004, 14504.544
459.486, 14549.143
459.968, 14567.292
460.450, 14550.069
460.932, 14503.331
461.414, 14414.845
461.896, 14304.242
462.379, 14163.635
462.861, 14010.227
463.343, 13886.727
463.825, 13842.074
464.307, 13804.631
464.789, 13741.139
465.271, 13646.685
465.753, 13527.818
466.235, 13303.433
466.717, 13095.631
467.200, 13015.841
467.682, 12726.819
468.164, 12612.391
468.646, 12455.952
469.128, 12260.186
469.610, 11905.551
470.092, 11758.627
470.574, 11528.543
471.057, 11339.551
471.539, 11018.200
472.021, 10735.212
472.503, 10485.293
472.985, 10271.720
473.467, 10105.818
473.949, 9987.418
474.431, 9878.050
474.914, 9799.263
475.396, 9705.661
475.878, 9441.648
476.360, 9014.288
476.842, 8592.167
477.324, 8312.507
477.806, 8125.179
478.288, 7937.614
478.770, 7730.752
479.253, 7539.341
479.735, 7397.504
480.217, 7293.180
480.699, 7201.081
481.181, 7108.948
481.663, 7026.566
482.145, 6965.966
482.627, 6926.841
483.109, 6865.778
483.592, 6766.700
484.074, 6647.358
484.556, 6519.000
485.038, 6359.609
485.520, 6206.452
486.002, 6070.077
486.484, 5942.937
486.966, 5802.411
487.448, 5647.495
487.931, 5480.372
488.413, 5303.551
488.895, 5115.436
489.377, 4914.775
489.859, 4708.674
490.341, 4485.989
490.823, 4222.832
491.306, 3917.332
491.788, 3661.529
492.270, 3484.990
492.752, 3347.494
493.234, 3177.334
493.716, 2978.156
494.198, 2762.650
494.680, 2525.278
495.162, 2283.355
495.645, 2076.194
496.127, 1902.541
496.609, 1750.767
497.091, 1615.182
497.573, 1491.549
498.055, 1374.710
498.537, 1275.514
499.019, 1166.094
499.501, 1014.900
499.984, 840.936
500.466, 688.557
500.948, 594.323
501.430, 509.264
501.912, 402.173
502.394, 258.884
502.876, 161.695
503.358, 156.061
503.841, 171.511
504.323, 147.100
504.805, 46.301
505.287, 25.379
505.769, 46.410
506.251, 35.000
506.733, 48.664
507.215, 93.332
507.698, 144.460
508.180, 101.020
508.662, 39.614
509.144, 26.514
509.626, 69.605
510.108, 115.209
510.590, 95.895
511.072, 29.966
511.554, 22.530
512.036, 43.175
512.519, 48.103
513.001, 54.925
513.483, 61.681
513.965, 61.993
514.447, 50.111
514.929, 32.276
515.411, 14.213
515.893, 2.950
516.375, 26.544
516.858, 67.083
517.340, 111.239
517.822, 102.711
518.304, 79.963
518.786, 61.601
519.268, 49.306
519.750, 40.747
520.232, 29.940
520.715, 16.142
521.197, 1.540
521.679, 10.987
522.161, 20.569
522.643, 44.898
523.125, 87.867
523.607, 136.474
524.089, 182.898
524.571, 226.794
525.054, 255.367
525.536, 265.915
526.018, 260.980
526.500, 225.086
526.982, 169.405
527.464, 132.595
527.946, 163.215
528.429, 177.297
528.911, 175.714
529.393, 111.902
529.875, 128.090
530.357, 111.973
530.839, 94.362
531.321, 103.602
531.803, 90.064
532.286, 88.510
532.768, 85.298
533.250, 78.400
533.732, 64.886
534.214, 33.847
534.696, 7.498
535.178, 7.029
535.660, 9.350
536.142, 17.232
536.625, 33.218
537.107, 50.540
537.589, 65.353
538.071, 57.324
538.553, 44.013
539.035, 28.904
539.517, 22.465
539.999, 50.343
540.481, 13.930
540.964, 31.164
541.446, 25.914
541.928, 8.125
542.410, 52.649
542.892, 151.408
543.374, 249.544
543.856, 312.886
544.338, 356.577
544.820, 388.986
545.303, 403.766
545.785, 442.486
546.267, 557.132
546.749, 694.597
547.231, 793.719
547.713, 799.394
548.195, 811.362
548.677, 848.757
549.159, 908.974
549.642, 978.271
550.124, 1061.736
550.606, 1148.353
551.088, 1241.154
551.570, 1344.506
552.052, 1403.325
552.534, 1401.415
553.016, 1394.196
553.499, 1440.638
553.981, 1537.537
554.463, 1647.127
554.945, 1769.338
555.427, 1887.131
555.909, 1957.398
556.391, 1995.103
556.873, 2058.811
557.356, 2207.919
557.838, 2378.678
558.320, 2506.865
558.802, 2591.957
559.284, 2666.654
559.766, 2734.625
560.248, 2807.481
560.730, 2895.535
561.213, 3004.363
561.695, 3117.342
562.177, 3259.896
562.659, 3395.934
563.141, 3466.370
563.623, 3390.937
564.105, 3379.199
564.587, 3489.527
565.069, 3691.391
565.552, 3839.202
566.034, 3925.252
566.516, 3996.601
566.998, 4074.505
567.480, 4158.439
567.962, 4256.933
568.444, 4373.041
568.926, 4480.479
569.408, 4546.517
569.891, 4579.808
570.373, 4571.815
570.855, 4643.037
571.337, 4694.510
571.819, 4726.946
572.301, 4685.863
572.783, 4740.642
573.265, 4758.576
573.747, 4776.100
574.230, 4847.523
574.712, 4821.935
575.194, 4893.985
575.676, 4930.727
576.158, 4987.876
576.640, 5000.481
577.122, 5039.249
577.604, 5091.754
578.086, 5169.184
578.569, 5248.232
579.051, 5286.692
579.533, 5277.100
580.015, 5295.779
580.497, 5375.966
580.979, 5488.361
581.461, 5549.164
581.943, 5563.538
582.426, 5591.339
582.908, 5692.352
583.390, 5818.380
583.872, 5899.257
584.354, 5931.301
584.836, 5952.015
585.318, 5977.083
585.800, 6012.336
586.282, 6050.755
586.765, 6079.966
587.247, 6129.178
587.729, 6240.081
588.211, 6369.865
588.693, 6439.572
589.175, 6386.885
589.657, 6357.830
590.140, 6387.580
590.622, 6468.565
591.104, 6533.715
591.586, 6588.949
592.068, 6621.394
592.550, 6615.571
593.032, 6571.910
593.514, 6545.840
593.996, 6539.868
594.479, 6537.183
594.961, 6527.598
595.443, 6509.509
595.925, 6480.474
596.407, 6439.995
596.889, 6389.250
597.371, 6324.582
597.853, 6250.853
598.335, 6183.685
598.818, 6114.874
599.300, 6055.912
599.782, 6021.933
600.264, 6016.572
600.746, 5992.174
601.228, 5941.827
601.710, 5873.042
602.192, 5784.036
602.674, 5663.454
603.157, 5570.354
603.639, 5515.106
604.121, 5472.248
604.603, 5408.948
605.085, 5324.789
605.567, 5247.473
606.049, 5189.561
606.531, 5132.585
607.013, 5040.227
607.496, 4920.232
607.978, 4803.631
608.460, 4695.059
608.942, 4609.958
609.424, 4580.156
609.906, 4587.518
610.388, 4557.932
610.870, 4417.255
611.353, 4255.158
611.835, 4122.958
612.317, 4021.189
612.799, 3976.406
613.281, 3828.827
613.763, 3778.628
614.245, 3698.815
614.727, 3594.123
615.209, 3393.989
615.692, 3311.553
616.174, 3227.224
616.656, 3116.174
617.138, 2980.709
617.620, 2870.527
618.102, 2835.749
618.584, 2821.301
619.067, 2714.881
619.549, 2528.608
620.031, 2339.755
620.513, 2174.827
620.995, 2042.549
621.477, 1962.684
621.959, 1944.759
622.441, 1920.239
622.923, 1860.757
623.406, 1786.379
623.888, 1714.129
624.370, 1647.818
624.852, 1577.934
625.334, 1493.785
625.816, 1412.479
626.298, 1377.295
626.780, 1408.020
627.263, 1386.733
627.745, 1259.014
628.227, 1073.060
628.709, 970.092
629.191, 945.090
629.673, 928.242
630.155, 879.832
630.637, 812.049
631.119, 738.968
631.602, 661.550
632.084, 587.839
632.566, 517.799
633.048, 456.874
633.530, 409.514
634.012, 378.190
634.494, 357.523
634.976, 352.404
635.458, 355.093
635.941, 359.355
636.423, 376.328
636.905, 370.782
637.387, 332.869
637.869, 271.572
638.351, 200.267
638.833, 115.902
639.315, 62.881
639.797, 74.272
640.280, 126.160
640.762, 177.171
641.244, 224.749
641.726, 236.059
642.208, 161.766
642.690, 56.221
643.172, 32.238
643.654, 7.975
644.137, 26.798
644.619, 27.785
645.101, 54.724
645.583, 55.569
646.065, 13.123
646.547, 54.035
647.029, 155.919
647.511, 185.297
647.994, 225.602
648.476, 134.285
648.958, 75.108
649.440, 46.333
649.922, 138.617
650.404, 74.812
650.886, 73.708
651.368, 75.282
651.851, 24.236
652.333, 7.388
652.815, 5.926
653.297, 22.276
653.779, 32.998
654.261, 21.730
654.743, 1.184
655.225, 23.697
655.707, 63.238
656.190, 76.737
656.672, 32.224
657.154, 21.047
657.636, 36.605
658.118, 3.855
658.600, 29.739
659.082, 30.249
659.564, 18.927
660.046, 15.177
660.529, 19.263
661.011, 42.499
661.493, 104.481
661.975, 172.664
662.457, 179.127
662.939, 141.503
663.421, 126.733
663.903, 200.127
664.385, 288.101
664.868, 331.233
665.350, 326.532
665.832, 352.028
666.314, 458.921
666.796, 575.627
667.278, 535.895
667.760, 529.157
668.242, 495.255
668.724, 423.403
669.207, 346.320
669.689, 309.350
670.171, 312.661
670.653, 290.211
671.135, 237.206
671.617, 142.275
672.099, 107.920
672.581, 13.515
673.064, 113.922
673.546, 194.422
674.028, 195.127
674.510, 299.121
674.992, 361.921
675.474, 423.087
675.956, 541.957
676.438, 554.887
676.920, 673.102
677.403, 749.483
677.885, 816.306
678.367, 999.008
678.849, 1223.881
679.331, 1371.770
679.813, 1446.281
680.295, 1587.930
680.778, 1803.044
681.260, 2033.048
681.742, 2202.949
682.224, 2346.054
682.706, 2526.157
683.188, 2764.341
683.670, 3004.978
684.152, 3186.380
684.634, 3356.603
685.117, 3571.364
685.599, 3914.285
686.081, 4218.734
686.563, 4426.798
687.045, 4590.442
687.527, 4807.557
688.009, 5109.335
688.491, 5393.570
688.973, 5627.399
689.456, 5831.128
689.938, 6073.834
690.420, 6354.875
690.902, 6640.886
691.384, 6928.126
691.866, 7206.051
692.348, 7445.520
692.830, 7651.927
693.312, 7879.992
693.795, 8200.043
694.277, 8525.247
694.759, 8778.288
695.241, 8923.942
695.723, 9114.660
696.205, 9421.695
696.687, 9739.445
697.169, 9998.949
697.652, 10201.237
698.134, 10378.325
698.616, 10524.863
699.098, 10658.291
699.580, 10806.107
700.062, 10959.311
700.544, 11073.564
701.026, 11116.633
701.508, 11173.443
701.991, 11354.540
702.473, 11610.232
702.955, 11842.773
703.437, 11992.435
703.919, 12123.942
704.401, 12257.934
704.883, 12394.737
705.365, 12548.754
705.847, 12725.238
706.330, 12916.104
706.812, 13112.057
707.294, 13313.118
707.776, 13535.055
708.258, 13784.018
708.740, 14034.935
709.222, 14273.010
709.705, 14506.135
710.187, 14742.496
710.669, 14984.675
711.151, 15251.257
711.633, 15472.309
712.115, 15774.563
712.597, 16036.020
713.079, 16487.770
713.561, 16893.748
714.044, 17256.666
714.526, 17446.639
715.008, 17859.930
715.490, 18175.715
715.972, 18498.863
716.454, 18819.348
716.936, 19140.959
717.418, 19461.389
717.901, 19783.105
718.383, 20109.354
718.865, 20456.305
719.347, 20780.514
719.829, 21020.254
720.311, 21196.201
720.793, 21367.850
721.275, 21568.412
721.757, 21755.939
722.240, 21929.377
722.722, 22077.869
723.204, 22169.025
723.686, 22146.314
724.168, 22123.211
724.650, 22140.744
725.132, 22193.180
725.614, 22171.781
726.096, 22069.145
726.579, 21946.674
727.061, 21847.207
727.543, 21750.523
728.025, 21590.494
728.507, 21371.842
728.989, 21151.252
729.471, 20982.406
729.953, 20819.652
730.435, 20634.961
730.918, 20425.820
731.400, 20168.273
731.882, 19816.900
732.364, 19447.793
732.846, 19108.578
733.328, 18809.656
733.810, 18522.803
734.292, 18258.807
734.775, 17984.725
735.257, 17656.441
735.739, 17281.645
736.221, 16899.695
736.703, 16514.055
737.185, 16132.400
737.667, 15757.802
738.149, 15394.408
738.631, 15050.787
739.114, 14751.543
739.596, 14443.297
740.078, 14086.773
740.560, 13710.536
741.042, 13369.298
741.524, 13082.564
742.006, 12802.882
742.489, 12518.280
742.971, 12235.715
743.453, 11980.633
743.935, 11751.782
744.417, 11532.740
744.899, 11325.344
745.381, 11116.844
745.863, 10868.143
746.345, 10592.412
746.828, 10353.842
747.310, 10216.401
747.792, 10098.159
748.274, 9949.931
748.756, 9772.497
749.238, 9603.468
749.720, 9461.185
750.202, 9313.245
750.684, 9143.722
751.167, 8957.422
751.649, 8775.929
752.131, 8599.492
752.613, 8434.785
753.095, 8268.308
753.577, 8119.831
754.059, 8040.231
754.541, 8036.001
755.023, 8032.456
755.506, 8029.600
755.988, 8027.384
756.470, 8025.784
756.952, 8024.797
757.434, 8024.413
757.916, 8024.648
758.398, 8026.339
758.880, 8030.361
759.362, 8071.278
759.845, 8105.716
760.327, 8130.816
760.809, 8157.086
761.291, 8200.192
761.773, 8251.429
762.255, 8289.500
762.737, 8309.844
763.219, 8339.334
763.702, 8380.215
764.184, 8449.100
764.666, 8568.589
765.148, 8802.797
765.630, 9017.073
766.112, 9185.170
766.594, 9322.948
767.076, 9436.886
767.558, 9564.761
768.041, 9693.127
768.523, 9821.116
769.005, 9948.825
769.487, 10077.791
769.969, 10212.873
770.451, 10349.011
770.933, 10486.132
771.416, 10579.846
771.898, 10686.171
772.380, 10791.694
772.862, 10862.110
773.344, 10865.496
773.826, 10852.648
774.308, 10829.267
774.790, 10806.528
775.272, 10824.943
775.755, 10898.277
776.237, 10965.313
776.719, 11013.155
777.201, 11037.092
777.683, 11001.197
778.165, 10916.250
778.647, 10848.555
779.129, 10855.353
779.612, 10883.415
780.094, 10888.538
780.576, 10872.298
781.058, 10851.777
781.540, 10842.480
782.022, 10814.776
782.504, 10746.500
782.986, 10638.402
783.468, 10572.396
783.951, 10558.562
784.433, 10543.745
784.915, 10505.990
785.397, 10442.597
785.879, 10321.949
786.361, 10147.064
786.843, 9996.341
787.325, 9962.705
787.807, 9948.689
788.290, 9868.115
788.772, 9706.814
789.254, 9541.230
789.736, 9371.320
790.218, 9212.925
790.700, 9087.213
791.182, 9004.718
791.664, 8851.981
792.146, 8607.068
792.629, 8361.338
793.111, 8221.696
793.593, 8140.152
794.075, 7994.104
794.557, 7769.774
795.039, 7510.751
795.521, 7207.758
796.003, 6905.119
796.485, 6649.284
796.968, 6474.668
797.450, 6258.343
797.932, 5966.123
798.414, 5652.616
798.896, 5364.104
799.378, 5106.715
799.860, 4837.220
800.343, 4543.587
800.825, 4250.779
801.307, 3974.128
801.789, 3717.359
802.271, 3480.540
802.753, 3266.924
803.235, 3052.544
803.717, 2821.917
804.199, 2585.840
804.682, 2355.960
805.164, 2118.086
805.646, 1914.509
806.128, 1751.604
806.610, 1608.387
807.092, 1463.671
807.574, 1317.997
808.056, 1168.419
808.539, 1012.562
809.021, 874.208
809.503, 797.699
809.985, 752.646
810.467, 686.105
810.949, 580.991
811.431, 466.311
811.913, 338.742
812.395, 218.569
812.878, 129.397
813.360, 74.351
813.842, 46.694
814.324, 58.802
814.806, 76.626
815.288, 42.073
815.770, 35.981
816.252, 90.114
816.734, 101.657
817.217, 104.991
817.699, 143.342
818.181, 192.824
818.663, 216.706
819.145, 173.466
819.627, 151.021
820.109, 183.896
820.591, 237.762
821.073, 272.989
821.556, 287.495
822.038, 293.277
822.520, 288.645
823.002, 281.030
823.484, 283.254
823.966, 290.692
824.448, 294.588
824.930, 291.436
825.413, 284.935
825.895, 264.553
826.377, 246.598
826.859, 252.913
827.341, 336.599
827.823, 336.095
828.305, 340.695
828.787, 278.323
829.269, 241.673
829.752, 230.397
830.234, 243.990
830.716, 289.144
831.198, 221.872
831.680, 199.036
832.162, 197.973
832.644, 177.609
833.127, 114.292
833.609, 51.395
834.091, 5.110
834.573, 49.186
835.055, 72.811
835.537, 69.899
836.019, 62.562
836.501, 47.009
836.983, 39.401
837.466, 73.245
837.948, 138.399
838.430, 190.875
838.912, 219.260
839.394, 238.977
839.876, 266.837
840.358, 292.413
840.840, 302.515
841.322, 276.392
841.805, 259.676
842.287, 257.719
842.769, 263.659
843.251, 275.288
843.733, 294.139
844.215, 286.776
844.697, 243.216
845.179, 195.386
845.661, 181.994
846.144, 190.895
846.626, 202.078
847.108, 210.724
847.590, 221.414
848.072, 242.057
848.554, 262.470
849.036, 273.281
849.518, 278.107
850.000, 259.333
850.483, 205.835
850.965, 151.786
851.447, 139.087
851.929, 159.791
852.411, 189.935
852.893, 228.537
853.375, 257.461
853.857, 258.163
854.340, 242.141
854.822, 217.826
855.304, 175.442
855.786, 153.357
856.268, 175.699
856.750, 192.505
857.232, 144.933
857.714, 260.100
858.196, 317.097
858.679, 291.834
859.161, 254.779
859.643, 260.002
860.125, 302.076
860.607, 393.911
861.089, 552.088
861.571, 653.639
862.054, 582.001
862.536, 494.547
863.018, 502.455
863.500, 630.676
863.982, 720.085
864.464, 766.646
864.946, 791.406
865.428, 813.022
865.910, 826.047
866.393, 796.424
866.875, 724.699
867.357, 698.503
867.839, 825.771
868.321, 976.111
868.803, 1055.889
869.285, 1045.912
869.767, 1044.354
870.250, 1053.076
870.732, 1067.620
871.214, 1086.868
871.696, 1110.540
872.178, 1114.383
872.660, 1103.616
873.142, 1113.020
873.624, 1188.748
874.106, 1246.103
874.589, 1287.054
875.071, 1265.465
875.553, 1321.680
876.035, 1342.700
876.517, 1377.597
876.999, 1404.501
877.481, 1459.448
877.963, 1490.125
878.445, 1494.019
878.928, 1499.246
879.410, 1529.196
879.892, 1564.269
880.374, 1571.186
880.856, 1559.390
881.338, 1557.438
881.820, 1593.378
882.302, 1623.184
882.784, 1631.653
883.267, 1624.186
883.749, 1611.494
884.231, 1590.296
884.713, 1578.455
885.195, 1574.591
885.677, 1585.724
886.159, 1630.245
886.641, 1697.174
887.123, 1744.453
887.606, 1738.408
888.088, 1725.658
888.570, 1728.258
889.052, 1741.453
889.534, 1739.712
890.016, 1704.609
890.498, 1698.635
890.981, 1696.976
891.463, 1760.621
891.945, 1810.077
892.427, 1845.407
892.909, 1822.075
893.391, 1873.566
893.873, 1894.474
894.355, 1929.780
894.837, 1957.777
895.320, 1974.735
895.802, 1962.328
896.284, 1950.604
896.766, 1936.226
897.248, 1930.423
897.730, 1952.878
898.212, 1996.995
898.694, 2016.846
899.177, 2009.846
899.659, 1991.603
900.141, 1968.189
900.623, 1943.331
901.105, 1920.486
901.587, 1900.010
902.069, 1885.508
902.551, 1883.581
903.033, 1884.773
903.516, 1878.041
903.998, 1864.320
904.480, 1878.784
904.962, 1921.117
905.444, 1953.259
905.926, 1942.239
906.408, 1911.467
906.890, 1876.232
907.372, 1840.851
907.855, 1830.427
908.337, 1883.041
908.819, 1928.116
909.301, 1940.667
909.783, 1927.447
910.265, 1920.811
910.747, 1920.415
911.229, 1918.041
911.711, 1908.629
912.194, 1900.964
912.676, 1908.817
913.158, 1927.042
913.640, 1941.848
914.122, 1936.380
914.604, 1938.946
915.086, 1966.811
915.568, 2010.395
916.050, 2030.253
916.533, 2018.170
917.015, 2012.147
917.497, 2022.772
917.979, 2047.166
918.461, 2097.594
918.943, 2155.905
919.425, 2181.206
919.907, 2130.856
920.390, 2111.603
920.872, 2186.378
921.354, 2294.714
921.836, 2388.589
922.318, 2469.849
922.800, 2512.812
923.282, 2512.137
923.764, 2497.746
924.247, 2479.540
924.729, 2469.736
925.211, 2503.448
925.693, 2587.362
926.175, 2654.297
926.657, 2649.682
927.139, 2640.836
927.621, 2670.422
928.104, 2736.192
928.586, 2752.668
929.068, 2712.012
929.550, 2680.512
930.032, 2702.333
930.514, 2752.540
930.996, 2800.859
931.478, 2843.493
931.960, 2859.804
932.443, 2812.737
932.925, 2767.968
933.407, 2759.433
933.889, 2768.985
934.371, 2750.783
934.853, 2698.300
935.335, 2664.391
935.817, 2662.811
936.299, 2682.278
936.782, 2727.899
937.264, 2778.537
937.746, 2790.602
938.228, 2721.621
938.710, 2664.156
939.192, 2665.892
939.674, 2680.155
940.156, 2659.417
940.638, 2593.817
941.121, 2556.156
941.603, 2552.728
942.085, 2558.252
942.567, 2562.854
943.049, 2552.895
943.531, 2471.504
944.013, 2312.136
944.495, 2251.478
944.978, 2251.122
945.460, 2236.229
945.942, 2207.632
946.424, 2123.911
946.906, 2110.435
947.388, 2039.524
947.870, 2003.213
948.352, 1978.343
948.834, 1947.778
949.317, 1878.944
949.799, 1785.517
950.281, 1707.156
950.763, 1676.769
951.245, 1640.757
951.727, 1580.880
952.209, 1511.203
952.692, 1446.769
953.174, 1383.417
953.656, 1309.054
954.138, 1325.592
954.620, 1320.634
955.102, 1296.332
955.584, 1187.135
956.066, 1184.926
956.548, 1139.131
957.031, 1091.461
957.513, 1104.335
957.995, 1005.818
958.477, 1018.072
958.959, 978.256
959.441, 978.943
959.923, 994.182
960.405, 993.025
960.888, 919.196
961.370, 834.065
961.852, 802.885
962.334, 827.403
962.816, 846.561
963.298, 856.893
963.780, 856.109
964.262, 837.987
964.744, 809.657
965.227, 781.919
965.709, 754.804
966.191, 715.663
966.673, 653.699
967.155, 586.932
967.637, 518.351
968.119, 457.655
968.601, 421.302
969.083, 435.541
969.566, 431.654
970.048, 400.700
970.530, 360.963
971.012, 334.359
971.494, 318.558
971.976, 307.016
972.458, 298.147
972.940, 291.178
973.422, 280.466
973.905, 279.522
974.387, 311.380
974.869, 379.487
975.351, 392.042
975.833, 333.300
976.315, 274.300
976.797, 250.345
977.279, 248.807
977.761, 244.422
978.244, 239.319
978.726, 239.416
979.208, 258.069
979.690, 269.861
980.172, 260.991
980.654, 240.866
981.136, 228.084
981.619, 225.895
982.101, 209.549
982.583, 173.055
983.065, 128.957
983.547, 83.408
984.029, 44.452
984.511, 27.758
984.993, 42.437
985.475, 55.048
985.958, 66.956
986.440, 62.620
986.922, 22.273
987.404, 53.933
987.886, 72.938
988.368, 34.043
988.850, 0.127
989.332, 29.530
989.815, 71.071
990.297, 61.257
990.779, 14.822
991.261, 2.195
991.743, 52.044
992.225, 95.397
992.707, 82.330
993.189, 80.455
993.671, 67.085
994.154, 47.895
994.636, 54.730
995.118, 74.070
995.600, 21.725
996.082, 8.665
996.564, 20.206
997.046, 12.538
997.528, 21.499
998.010, 43.861
998.493, 51.153
998.975, 57.257
999.457, 64.119
999.939, 28.906
1000.421, 56.362
1000.903, 6.130
1001.385, 61.690
1001.867, 80.491
1002.349, 76.645
1002.832, 47.772
1003.314, 7.548
1003.796, 5.825
1004.278, 10.629
1004.760, 17.270
1005.242, 0.353
1005.724, 19.045
1006.206, 9.346
1006.689, 12.790
1007.171, 22.045
1007.653, 5.360
1008.135, 4.635
1008.617, 2.488
1009.099, 8.206
1009.581, 7.031
1010.063, 39.107
1010.545, 38.704
1011.028, 7.537
1011.510, 16.626
1011.992, 7.892
1012.474, 32.585
1012.956, 18.260
1013.438, 27.561
1013.920, 63.982
1014.402, 93.875
1014.885, 99.563
1015.367, 69.703
1015.849, 28.233
1016.331, 13.304
1016.813, 16.742
1017.295, 4.741
1017.777, 10.423
1018.259, 21.318
1018.741, 60.259
1019.224, 71.821
1019.706, 22.650
1020.188, 17.389
1020.670, 4.183
1021.152, 11.348
1021.634, 51.903
1022.116, 8.728
1022.598, 31.928
1023.081, 36.436
1023.563, 67.253
1024.045, 41.107
1024.527, 32.559
1025.009, 32.787
1025.491, 47.993
1025.973, 35.375
1026.455, 38.744
1026.938, 54.478
1027.420, 72.789
1027.902, 95.191
1028.384, 101.019
1028.866, 55.473
1029.348, 3.990
1029.830, 0.415
1030.312, 21.604
1030.794, 16.358
1031.276, 26.905
1031.759, 68.021
1032.241, 55.945
1032.723, 23.605
1033.205, 27.591
1033.687, 55.355
1034.169, 70.205
1034.651, 44.910
1035.133, 25.032
1035.616, 22.317
1036.098, 24.561
1036.580, 7.716
1037.062, 36.889
1037.544, 44.379
1038.026, 17.766
1038.508, 26.485
1038.990, 28.206
1039.473, 19.350
1039.955, 12.637
1040.437, 13.463
1040.919, 25.325
1041.401, 48.136
1041.883, 65.017
1042.365, 67.521
1042.847, 61.440
1043.329, 56.934
1043.812, 52.641
1044.294, 44.444
1044.776, 23.682
1045.258, 23.899
1045.740, 25.159
1046.222, 21.725
1046.704, 14.722
1047.186, 23.994
1047.668, 18.530
1048.151, 21.294
1048.633, 31.857
1049.115, 16.476
1049.597, 32.977
1050.079, 73.425
1050.561, 124.881
1051.043, 146.959
1051.525, 127.912
1052.008, 116.477
1052.490, 126.283
1052.972, 153.630
1053.454, 211.185
1053.936, 277.881
1054.418, 313.117
1054.900, 290.929
1055.382, 270.596
1055.865, 259.811
1056.347, 263.182
1056.829, 288.343
1057.311, 333.562
1057.793, 357.540
1058.275, 361.964
1058.757, 402.976
1059.239, 574.803
1059.721, 732.563
1060.203, 756.770
1060.686, 683.519
1061.168, 637.992
1061.650, 629.297
1062.132, 634.829
1062.614, 656.281
1063.096, 675.368
1063.578, 652.404
1064.060, 617.608
1064.543, 626.340
1065.025, 693.913
1065.507, 735.979
1065.989, 691.942
1066.471, 661.008
1066.953, 683.591
1067.435, 751.422
1067.917, 853.338
1068.400, 980.230
1068.882, 1057.379
1069.364, 1022.044
1069.846, 966.319
1070.328, 937.572
1070.810, 928.156
1071.292, 924.851
1071.774, 927.386
1072.256, 926.178
1072.739, 919.586
1073.221, 912.470
1073.703, 913.399
1074.185, 913.441
1074.667, 899.539
1075.149, 872.416
1075.631, 841.787
1076.113, 804.893
1076.596, 782.855
1077.078, 790.344
1077.560, 800.258
1078.042, 754.838
1078.524, 672.975
1079.006, 624.480
1079.488, 632.550
1079.970, 651.507
1080.453, 677.926
1080.935, 695.992
1081.417, 697.260
1081.899, 683.391
1082.381, 652.510
1082.863, 605.911
1083.345, 565.172
1083.827, 546.435
1084.309, 545.644
1084.792, 572.935
1085.274, 610.224
1085.756, 632.287
1086.238, 628.930
1086.720, 627.046
1087.202, 628.370
1087.684, 629.047
1088.166, 614.753
1088.648, 593.098
1089.131, 594.561
1089.613, 617.449
1090.095, 632.292
1090.577, 602.535
1091.059, 588.631
1091.541, 619.322
1092.023, 667.595
1092.505, 654.221
1092.988, 594.338
1093.470, 579.923
1093.952, 644.503
1094.434, 711.101
1094.916, 729.447
1095.398, 725.292
1095.880, 716.638
1096.362, 703.685
1096.844, 708.208
1097.327, 731.278
1097.809, 757.106
1098.291, 776.560
1098.773, 796.113
1099.255, 835.337
1099.737, 876.847
1100.219, 883.741
1100.701, 793.252
1101.183, 902.585
1101.666, 963.677
1102.148, 981.615
1102.630, 815.832
1103.112, 883.569
1103.594, 856.233
1104.076, 825.215
1104.558, 874.054
1105.040, 905.336
1105.523, 924.729
1106.005, 911.112
1106.487, 886.677
1106.969, 805.451
1107.451, 906.209
1107.933, 966.089
1108.415, 981.604
1108.897, 830.776
1109.380, 894.333
1109.862, 871.958
1110.344, 846.186
1110.826, 892.976
1111.308, 872.018
1111.790, 910.134
1112.272, 927.332
1112.754, 879.744
1113.236, 815.424
1113.719, 789.684
1114.201, 777.878
1114.683, 755.551
1115.165, 703.325
1115.647, 676.258
1116.129, 676.188
1116.611, 688.833
1117.093, 717.255
1117.575, 742.597
1118.058, 724.277
1118.540, 670.177
1119.022, 618.963
1119.504, 588.797
1119.986, 554.707
1120.468, 510.345
1120.950, 464.336
1121.432, 430.650
1121.915, 405.929
1122.397, 380.352
1122.879, 353.008
1123.361, 323.158
1123.843, 286.526
1124.325, 251.934
1124.807, 224.821
1125.289, 202.900
1125.771, 172.534
1126.254, 135.309
1126.736, 119.004
1127.218, 138.691
1127.700, 159.077
1128.182, 151.403
1128.664, 130.758
1129.146, 104.144
1129.628, 67.066
1130.110, 83.391
1130.593, 158.679
1131.075, 223.885
1131.557, 239.044
1132.039, 224.416
1132.521, 182.200
1133.003, 131.127
1133.485, 110.187
1133.967, 151.155
1134.450, 167.974
1134.932, 156.010
1135.414, 128.600
1135.896, 85.159
1136.378, 40.973
1136.860, 29.836
1137.342, 46.462
1137.824, 54.402
1138.307, 31.219
1138.789, 8.973
1139.271, 23.559
1139.753, 24.443
1140.235, 35.542
1140.717, 7.385
1141.199, 39.195
1141.681, 53.421
1142.163, 9.113
1142.646, 12.236
1143.128, 4.830
1143.610, 12.722
1144.092, 31.581
1144.574, 9.168
1145.056, 9.103
1145.538, 1.134
1146.020, 21.812
1146.502, 75.837
1146.985, 16.560
1147.467, 14.919
1147.949, 50.200
1148.431, 37.180
1148.913, 15.703
1149.395, 13.933
1149.877, 15.432
1150.359, 12.506
1150.842, 15.638
1151.324, 23.846
1151.806, 23.885
1152.288, 11.533
1152.770, 31.257
1153.252, 68.228
1153.734, 99.398
1154.216, 116.113
1154.698, 99.680
1155.181, 74.352
1155.663, 64.907
1156.145, 69.365
1156.627, 80.491
1157.109, 105.598
1157.591, 116.458
1158.073, 110.536
1158.555, 88.116
1159.037, 21.306
1159.520, 6.341
1160.002, 22.016
1160.484, 68.163
1160.966, 118.463
1161.448, 66.496
1161.930, 31.711
1162.412, 47.067
1162.894, 86.070
1163.377, 118.167
1163.859, 134.656
1164.341, 105.257
1164.823, 12.179
1165.305, 12.339
1165.787, 7.163
1166.269, 58.169
1166.751, 80.465
1167.234, 78.407
1167.716, 51.016
1168.198, 8.904
1168.680, 17.043
1169.162, 9.590
1169.644, 1.512
1170.126, 22.828
1170.608, 20.432
1171.090, 29.219
1171.573, 27.101
1172.055, 96.678
1172.537, 129.934
1173.019, 18.379
1173.501, 94.368
1173.983, 95.588
1174.465, 133.379
1174.947, 148.652
1175.430, 160.578
1175.912, 168.783
1176.394, 159.918
1176.876, 134.968
1177.358, 117.611
1177.840, 128.735
1178.322, 145.564
1178.804, 165.583
1179.286, 179.221
1179.769, 162.331
1180.251, 113.701
1180.733, 99.061
1181.215, 127.051
1181.697, 154.981
1182.179, 140.833
1182.661, 122.125
1183.143, 123.047
1183.625, 142.425
1184.108, 184.011
1184.590, 252.685
1185.072, 269.168
1185.554, 209.254
1186.036, 139.837
1186.518, 115.996
1187.000, 115.314
1187.482, 121.497
1187.965, 132.833
1188.447, 140.914
1188.929, 144.995
1189.411, 155.003
1189.893, 179.801
1190.375, 197.191
1190.857, 172.612
1191.339, 133.413
1191.822, 111.254
1192.304, 110.603
1192.786, 121.543
1193.268, 148.173
1193.750, 157.048
1194.232, 116.077
1194.714, 72.074
1195.196, 91.780
1195.678, 141.997
1196.161, 172.425
1196.643, 176.561
1197.125, 155.679
1197.607, 104.956
1198.089, 59.804
1198.571, 53.795
1199.053, 68.976
1199.535, 97.535
1200.017, 127.205
1200.500, 141.942
1200.982, 127.921
1201.464, 122.483
1201.946, 129.194
1202.428, 133.210
1202.910, 113.953
1203.392, 88.602
1203.874, 78.631
1204.357, 79.796
1204.839, 83.060
1205.321, 86.746
1205.803, 81.535
1206.285, 66.243
1206.767, 56.885
1207.249, 84.002
1207.731, 118.132
1208.214, 106.545
1208.696, 54.832
1209.178, 31.322
1209.660, 55.123
1210.142, 85.287
1210.624, 115.163
1211.106, 137.781
1211.588, 137.360
1212.070, 127.295
1212.552, 132.606
1213.035, 156.346
1213.517, 150.234
1213.999, 92.377
1214.481, 53.886
1214.963, 55.297
1215.445, 76.719
1215.927, 105.183
1216.409, 126.543
1216.892, 111.731
1217.374, 47.594
1217.856, 17.465
1218.338, 40.970
1218.820, 64.635
1219.302, 71.383
1219.784, 66.263
1220.266, 45.569
1220.749, 23.569
1221.231, 27.972
1221.713, 76.538
1222.195, 86.599
1222.677, 38.633
1223.159, 1.350
1223.641, 18.249
1224.123, 60.257
1224.605, 74.257
1225.088, 86.101
1225.570, 60.917
1226.052, 73.994
1226.534, 75.856
1227.016, 69.587
1227.498, 28.686
1227.980, 30.884
1228.462, 18.974
1228.944, 26.318
1229.427, 85.022
1229.909, 104.151
1230.391, 33.355
1230.873, 6.502
1231.355, 11.223
1231.837, 7.326
1232.319, 63.562
1232.801, 121.843
1233.284, 130.653
1233.766, 104.261
1234.248, 74.551
1234.730, 34.081
1235.212, 22.477
1235.694, 43.984
1236.176, 79.735
1236.658, 132.501
1237.141, 177.811
1237.623, 173.655
1238.105, 136.731
1238.587, 115.640
1239.069, 121.584
1239.551, 116.911
1240.033, 97.459
1240.515, 76.675
1240.997, 64.265
1241.479, 59.626
1241.962, 70.529
1242.444, 88.644
1242.926, 82.839
1243.408, 44.512
1243.890, 23.383
1244.372, 26.023
1244.854, 38.025
1245.336, 52.774
1245.819, 66.569
1246.301, 71.442
1246.783, 72.002
1247.265, 90.916
1247.747, 131.286
1248.229, 153.322
1248.711, 149.734
1249.193, 136.634
1249.676, 129.940
1250.158, 119.633
1250.640, 81.198
1251.122, 33.580
1251.604, 54.286
1252.086, 146.161
1252.568, 200.272
1253.050, 194.997
1253.532, 159.331
1254.015, 79.424
1254.497, 13.134
1254.979, 13.791
1255.461, 60.732
1255.943, 86.311
1256.425, 91.151
1256.907, 88.063
1257.389, 76.875
1257.871, 67.831
1258.354, 71.371
1258.836, 75.305
1259.318, 73.887
1259.800, 69.130
1260.282, 68.810
1260.764, 71.680
1261.246, 69.139
1261.728, 59.981
1262.211, 47.939
1262.693, 28.468
1263.175, 10.567
1263.657, 1.549
1264.139, 1.626
1264.621, 4.374
1265.103, 5.583
1265.585, 1.326
1266.068, 23.116
1266.550, 28.496
1267.032, 7.363
1267.514, 12.793
1267.996, 11.400
1268.478, 20.011
1268.960, 2.459
1269.442, 17.074
1269.924, 38.465
1270.407, 127.059
1270.889, 160.277
1271.371, 95.820
1271.853, 48.289
1272.335, 87.181
1272.817, 160.346
1273.299, 158.330
1273.781, 119.094
1274.264, 117.773
1274.746, 194.736
1275.228, 231.692
1275.710, 215.827
1276.192, 187.330
1276.674, 158.733
1277.156, 140.746
1277.638, 166.061
1278.120, 205.599
1278.603, 208.023
1279.085, 151.821
1279.567, 129.992
1280.049, 147.760
1280.531, 168.921
1281.013, 149.556
1281.495, 113.678
1281.977, 132.753
1282.459, 188.102
1282.942, 222.795
1283.424, 233.991
1283.906, 240.180
1284.388, 240.587
1284.870, 225.761
1285.352, 180.751
1285.834, 132.524
1286.316, 98.997
1286.799, 70.898
1287.281, 29.899
1287.763, 5.649
1288.245, 6.280
1288.727, 97.664
1289.209, 156.467
1289.691, 107.182
1290.173, 61.807
1290.656, 75.695
1291.138, 85.473
1291.620, 77.653
1292.102, 46.841
1292.584, 23.573
1293.066, 9.431
1293.548, 0.199
1294.030, 0.000
##END=



