##NAMES=Magnesio-fluoro-arfvedsonite
##RRUFFID=R050515
##IDEAL CHEMISTRY=NaNa_2_(Mg_4_Fe^3+^)Si_8_O_22_F_2_
##LOCALITY=unknown
##OWNER=RRUFF
##SOURCE=Frank Hawthorne
##DESCRIPTION=Numerous small dark green fragments
##STATUS=The identification of this mineral has been confirmed by X-ray diffraction and chemical analysis
##URL=rruff.info/R050515
##MEASURED CHEMISTRY=(Na_0.48_K_0.20_[box]_0.32_)(Na_1.50_Ca_0.50_)_Σ=2_(Mg_2.05_Fe^2+^_1.45_Mn_0.50_)_Σ=4_(Fe^3+^_0.80_Mn_0.05_Al_0.10_Ti_0.05_)(Si_0.97_Al_0.03_)_8_O_22_(F_0.65_(OH)_0.35_)_2_
143.9589, 0.0000000E+00
144.4410, 0.1237790
144.9231, 1.436584
145.4053, 4.145020
145.8874, 8.185486
146.3695, 14.02954
146.8516, 19.86053
147.3337, 25.04828
147.8158, 29.88184
148.2980, 33.54745
148.7801, 36.07947
149.2622, 37.47278
149.7443, 37.62772
150.2264, 36.05121
150.7085, 33.70340
151.1907, 30.86722
151.6728, 27.08801
152.1549, 23.50562
152.6370, 19.65271
153.1191, 15.92947
153.6012, 13.45166
154.0834, 13.81143
154.5655, 14.22980
155.0476, 13.50067
155.5297, 10.55499
156.0118, 7.725311
156.4939, 4.948151
156.9761, 2.411224
157.4582, 0.8663640
157.9403, 1.139435
158.4224, 2.000061
158.9045, 2.731995
159.3866, 2.854431
159.8688, 3.212524
160.3509, 4.027130
160.8330, 5.265259
161.3151, 6.775024
161.7972, 8.546631
162.2793, 10.54755
162.7615, 12.75839
163.2436, 15.74228
163.7257, 18.39737
164.2078, 19.98654
164.6899, 20.67493
165.1720, 21.64120
165.6541, 23.78284
166.1363, 26.34631
166.6184, 28.58847
167.1005, 30.17136
167.5826, 31.41968
168.0647, 32.59567
168.5468, 33.67990
169.0290, 34.40994
169.5111, 34.38574
169.9932, 33.96799
170.4753, 33.63300
170.9574, 34.18317
171.4395, 34.50552
171.9217, 33.46344
172.4038, 31.06372
172.8859, 28.43710
173.3680, 26.39502
173.8501, 24.73984
174.3322, 23.07385
174.8144, 21.04858
175.2965, 18.99997
175.7786, 17.41589
176.2607, 16.29266
176.7428, 15.36505
177.2249, 14.33481
177.7071, 13.31271
178.1892, 12.53772
178.6713, 12.53494
179.1534, 12.72366
179.6355, 11.94647
180.1176, 10.05566
180.5998, 8.092468
181.0819, 6.974030
181.5640, 6.647095
182.0461, 6.892853
182.5282, 8.217041
183.0103, 9.987183
183.4925, 10.52106
183.9746, 9.570923
184.4567, 8.327728
184.9388, 8.358093
185.4209, 9.481873
185.9030, 10.60709
186.3852, 11.33588
186.8673, 11.67166
187.3494, 11.44925
187.8315, 10.50522
188.3136, 9.579987
188.7957, 9.668610
189.2779, 10.73349
189.7600, 12.24158
190.2421, 14.19656
190.7242, 16.45963
191.2063, 18.18250
191.6884, 19.19174
192.1706, 19.96463
192.6527, 21.33853
193.1348, 23.31305
193.6169, 25.26358
194.0990, 26.89465
194.5811, 28.20728
195.0633, 29.34860
195.5454, 30.21829
196.0275, 31.10580
196.5096, 32.66443
196.9917, 34.97226
197.4738, 37.13736
197.9560, 38.74347
198.4381, 39.79330
198.9202, 40.37640
199.4023, 40.27579
199.8844, 40.04312
200.3665, 40.90753
200.8487, 43.04770
201.3308, 45.27084
201.8129, 46.76505
202.2950, 47.77982
202.7771, 48.78885
203.2592, 49.87354
203.7414, 50.88147
204.2235, 51.42273
204.7056, 51.34933
205.1877, 51.24225
205.6698, 51.45676
206.1519, 52.07266
206.6341, 52.40652
207.1162, 52.30630
207.5983, 52.02161
208.0804, 52.15875
208.5625, 52.83600
209.0446, 53.51196
209.5268, 54.01865
210.0089, 52.40677
210.4910, 55.00607
210.9731, 56.60031
211.4552, 57.12720
211.9373, 53.67957
212.4195, 55.18948
212.9016, 54.71967
213.3837, 54.17487
213.8658, 56.40439
214.3479, 53.45624
214.8300, 55.55258
215.3121, 55.53995
215.7943, 56.41446
216.2764, 55.25714
216.7585, 54.72092
217.2406, 56.20316
217.7227, 56.56958
218.2048, 53.99258
218.6870, 54.12958
219.1691, 54.43124
219.6512, 53.58951
220.1333, 50.78613
220.6154, 48.33170
221.0975, 47.36069
221.5797, 48.67621
222.0618, 49.13190
222.5439, 48.39969
223.0260, 46.97595
223.5081, 45.97668
223.9902, 45.71039
224.4724, 45.37103
224.9545, 44.61453
225.4366, 43.24631
225.9187, 42.01428
226.4008, 40.90912
226.8829, 39.94238
227.3651, 39.14145
227.8472, 38.57111
228.3293, 38.03799
228.8114, 37.46036
229.2935, 36.80557
229.7757, 36.21082
230.2578, 35.79214
230.7399, 35.37256
231.2220, 34.53436
231.7041, 32.91284
232.1862, 31.44852
232.6684, 30.51346
233.1505, 30.29459
233.6326, 29.99994
234.1147, 29.69849
234.5968, 29.28003
235.0789, 28.48331
235.5611, 26.89240
236.0432, 25.61594
236.5253, 25.17157
237.0074, 26.02023
237.4895, 26.01578
237.9716, 24.74103
238.4538, 22.87363
238.9359, 21.53067
239.4180, 21.03714
239.9001, 20.51703
240.3822, 19.65375
240.8643, 18.33215
241.3465, 17.24811
241.8286, 16.42023
242.3107, 15.81409
242.7928, 15.42993
243.2749, 15.51288
243.7570, 15.38751
244.2392, 14.85480
244.7213, 13.86322
245.2034, 12.70776
245.6855, 11.16922
246.1676, 9.641235
246.6497, 8.622559
247.1319, 8.247589
247.6140, 8.163879
248.0961, 8.412781
248.5782, 9.075745
249.0603, 9.343140
249.5424, 9.127716
250.0246, 8.612915
250.5067, 7.976837
250.9888, 7.180603
251.4709, 6.334900
251.9530, 5.414825
252.4351, 4.396332
252.9173, 3.532837
253.3994, 2.631439
253.8815, 2.059509
254.3636, 2.337738
254.8457, 4.145416
255.3278, 5.240021
255.8100, 4.943939
256.2921, 3.300720
256.7742, 2.366638
257.2563, 2.466125
257.7384, 2.836609
258.2205, 2.864899
258.7026, 2.507202
259.1848, 1.914825
259.6669, 1.036652
260.1490, 1.331146
260.6311, 1.027954
261.1132, 1.802368
261.5953, 2.381744
262.0775, 2.702484
262.5596, 2.673279
263.0417, 2.653442
263.5238, 2.679688
264.0059, 2.749725
264.4880, 2.864594
264.9702, 3.061798
265.4523, 3.245300
265.9344, 3.278687
266.4165, 3.012390
266.8986, 3.254608
267.3807, 4.424438
267.8629, 6.023560
268.3450, 6.268219
268.8271, 4.647736
269.3092, 2.925293
269.7913, 2.127411
270.2734, 2.500641
270.7556, 2.576538
271.2377, 2.264862
271.7198, 1.617767
272.2019, 0.6774600
272.6840, 0.6775210
273.1661, 1.945587
273.6483, 2.818542
274.1304, 3.220886
274.6125, 3.819885
275.0946, 4.615265
275.5767, 5.602936
276.0588, 6.895630
276.5410, 8.584564
277.0231, 10.02386
277.5052, 10.73193
277.9873, 10.68243
278.4694, 11.23727
278.9515, 12.57227
279.4337, 14.10535
279.9158, 14.98303
280.3979, 15.14511
280.8800, 15.21390
281.3621, 15.34579
281.8442, 15.55478
282.3264, 16.03232
282.8085, 16.86359
283.2906, 17.70377
283.7727, 18.09576
284.2548, 18.04144
284.7369, 18.01871
285.2191, 18.07797
285.7012, 18.29196
286.1833, 19.03461
286.6654, 20.36084
287.1475, 21.86325
287.6296, 23.19153
288.1118, 24.35382
288.5939, 25.37961
289.0760, 26.25516
289.5581, 27.00421
290.0402, 27.67136
290.5223, 28.25226
291.0045, 28.85901
291.4866, 29.63675
291.9687, 30.53772
292.4508, 31.36758
292.9329, 32.15140
293.4150, 32.76443
293.8972, 32.85205
294.3793, 32.46960
294.8614, 32.21848
295.3435, 32.68347
295.8256, 33.60455
296.3077, 34.23276
296.7899, 34.43243
297.2720, 34.45148
297.7541, 34.50107
298.2362, 34.61359
298.7183, 34.93579
299.2004, 35.87238
299.6826, 37.00098
300.1647, 37.43207
300.6468, 37.00369
301.1289, 36.43564
301.6110, 36.56747
302.0931, 37.15408
302.5753, 37.56091
303.0574, 37.28558
303.5395, 36.74823
304.0216, 36.40488
304.5037, 36.26068
304.9858, 36.47153
305.4680, 37.68973
305.9501, 39.29083
306.4322, 40.18604
306.9143, 39.21393
307.3964, 37.94675
307.8785, 38.03772
308.3607, 39.35364
308.8428, 40.57544
309.3249, 40.46371
309.8070, 39.90094
310.2891, 39.99432
310.7712, 41.73270
311.2534, 43.33102
311.7355, 43.28595
312.2176, 41.96552
312.6997, 40.74991
313.1818, 40.18643
313.6639, 40.14227
314.1461, 40.63953
314.6282, 42.04733
315.1103, 43.18445
315.5924, 43.46634
316.0745, 43.05350
316.5566, 42.27719
317.0388, 41.00220
317.5209, 39.58218
318.0030, 38.17471
318.4851, 36.80414
318.9672, 35.45291
319.4493, 34.09927
319.9315, 32.80222
320.4136, 31.62411
320.8957, 30.85254
321.3778, 29.96356
321.8599, 28.55307
322.3420, 26.51096
322.8242, 25.04446
323.3063, 25.16785
323.7884, 25.61948
324.2705, 25.30862
324.7526, 23.04688
325.2347, 20.96078
325.7169, 19.63531
326.1990, 19.07010
326.6811, 18.38217
327.1632, 17.33887
327.6453, 16.21249
328.1274, 15.11719
328.6096, 13.94528
329.0917, 13.00229
329.5738, 12.38226
330.0559, 12.04504
330.5380, 11.83459
331.0201, 11.92627
331.5023, 11.86383
331.9844, 11.41675
332.4665, 10.33517
332.9486, 9.496460
333.4307, 9.102600
333.9128, 8.848785
334.3950, 8.143951
334.8771, 6.511261
335.3592, 5.308197
335.8413, 5.002716
336.3234, 5.659882
336.8055, 6.557983
337.2877, 7.856659
337.7698, 9.158752
338.2519, 10.02075
338.7340, 10.35309
339.2161, 10.54782
339.6982, 10.61804
340.1803, 10.61060
340.6624, 10.81949
341.1446, 11.27362
341.6267, 11.86423
342.1088, 12.56537
342.5909, 13.37756
343.0730, 14.15955
343.5551, 14.95795
344.0373, 15.62735
344.5194, 13.89456
345.0015, 16.70667
345.4836, 18.49500
345.9657, 19.31439
346.4478, 16.26157
346.9300, 18.21088
347.4121, 18.15686
347.8942, 18.02139
348.3763, 20.67697
348.8584, 18.19116
349.3405, 20.80374
349.8227, 21.38193
350.3048, 22.89224
350.7869, 22.38666
351.2690, 22.50455
351.7511, 24.64029
352.2332, 25.65952
352.7154, 24.92407
353.1975, 26.49731
353.6796, 26.81500
354.1617, 25.01749
354.6438, 27.64941
355.1259, 27.01898
355.6081, 26.02139
356.0902, 26.07907
356.5723, 26.32855
357.0544, 26.80920
357.5365, 27.60837
358.0186, 28.40738
358.5008, 29.03897
358.9829, 29.50308
359.4650, 29.80551
359.9471, 30.21716
360.4292, 30.27563
360.9113, 29.41586
361.3935, 27.41321
361.8756, 25.89911
362.3577, 25.83395
362.8398, 26.52194
363.3219, 27.17114
363.8040, 28.20071
364.2862, 28.55499
364.7683, 27.45569
365.2504, 25.00159
365.7325, 23.17679
366.2146, 22.96960
366.6967, 23.12039
367.1789, 22.84653
367.6610, 21.15710
368.1431, 20.12030
368.6252, 20.43820
369.1073, 21.58344
369.5894, 21.87527
370.0716, 20.55182
370.5537, 19.15762
371.0358, 18.22836
371.5179, 17.92056
372.0000, 17.59531
372.4821, 17.24722
372.9643, 16.88324
373.4464, 16.50690
373.9285, 16.09280
374.4106, 15.71747
374.8927, 15.41248
375.3748, 15.16748
375.8570, 14.83746
376.3391, 14.38782
376.8212, 13.90494
377.3033, 13.40939
377.7854, 12.87656
378.2675, 12.56589
378.7497, 12.59348
379.2318, 12.78641
379.7139, 12.77600
380.1960, 12.57904
380.6781, 12.03497
381.1602, 10.78531
381.6424, 9.003662
382.1245, 7.783936
382.6066, 7.192230
383.0887, 7.069031
383.5708, 7.468842
384.0529, 8.253632
384.5351, 8.760040
385.0172, 8.719421
385.4993, 8.237122
385.9814, 7.356232
386.4635, 6.063751
386.9456, 4.748627
387.4278, 3.623016
387.9099, 2.753387
388.3920, 2.221954
388.8741, 2.105133
389.3562, 2.209259
389.8383, 2.350739
390.3205, 2.535797
390.8026, 2.871033
391.2847, 3.876465
391.7668, 4.860626
392.2489, 5.122467
392.7310, 4.361725
393.2132, 3.656891
393.6953, 3.627106
394.1774, 3.962769
394.6595, 4.259918
395.1416, 4.302521
395.6237, 4.335419
396.1059, 4.575348
396.5880, 5.005615
397.0701, 5.089752
397.5522, 4.266449
398.0343, 3.382690
398.5164, 2.972717
398.9986, 3.215424
399.4807, 3.749084
399.9628, 5.012085
400.4449, 6.452148
400.9270, 6.811096
401.4091, 5.064941
401.8913, 3.665710
402.3734, 3.385223
402.8555, 4.400513
403.3376, 5.500183
403.8197, 6.920990
404.3018, 8.217163
404.7840, 8.799103
405.2661, 8.413361
405.7482, 8.096588
406.2303, 8.009949
406.7124, 8.155457
407.1945, 8.503571
407.6767, 9.135010
408.1588, 9.734863
408.6409, 9.896240
409.1230, 9.718201
409.6051, 9.953674
410.0872, 10.74567
410.5694, 11.77310
411.0515, 12.52316
411.5336, 13.01770
412.0157, 13.45172
412.4978, 13.99384
412.9799, 14.52313
413.4621, 14.54877
413.9442, 14.12964
414.4263, 13.99173
414.9084, 15.04843
415.3905, 16.73706
415.8727, 18.09387
416.3548, 18.89804
416.8369, 19.26773
417.3190, 18.99545
417.8011, 18.33008
418.2832, 17.93362
418.7654, 18.66138
419.2475, 19.39563
419.7296, 19.15482
420.2117, 17.62143
420.6938, 16.51636
421.1759, 16.64270
421.6581, 17.48621
422.1402, 18.50754
422.6223, 20.26434
423.1044, 21.45474
423.5865, 21.58109
424.0686, 20.75330
424.5508, 19.84558
425.0329, 18.64719
425.5150, 17.62772
425.9971, 17.04459
426.4792, 17.28812
426.9613, 17.16086
427.4435, 16.47461
427.9256, 15.53143
428.4077, 14.79556
428.8898, 14.27805
429.3719, 13.95251
429.8540, 13.95523
430.3362, 14.22977
430.8183, 13.79904
431.3004, 12.46750
431.7825, 10.99960
432.2646, 10.13110
432.7467, 9.867676
433.2289, 9.188995
433.7110, 7.800720
434.1931, 6.236786
434.6752, 5.613129
435.1573, 5.846893
435.6394, 6.050446
436.1216, 5.600189
436.6036, 4.816711
437.0858, 4.503143
437.5679, 4.682953
438.0500, 4.861328
438.5321, 4.534668
439.0142, 3.924194
439.4963, 3.411163
439.9785, 3.174438
440.4606, 2.982788
440.9427, 2.736237
441.4248, 2.406158
441.9069, 1.901123
442.3890, 1.504425
442.8712, 1.045854
443.3533, 0.6178590
443.8354, 0.3627930
444.3175, 0.1730960
444.7996, 0.4094240
445.2817, 0.7997740
445.7639, 1.064240
446.2460, 1.170044
446.7281, 1.139252
447.2102, 0.7435610
447.6923, 0.1068120
448.1744, 9.5367000E-02
448.6566, 1.406403
449.1387, 2.629883
449.6208, 3.092926
450.1029, 2.473053
450.5850, 2.111938
451.0671, 2.158478
451.5493, 2.314453
452.0314, 2.130676
452.5135, 1.531860
452.9956, 0.8885800
453.4777, 0.2147220
453.9598, 0.4157100
454.4420, 0.6577450
454.9241, 0.4953610
455.4062, 0.1032100
455.8883, 0.6515500
456.3704, 1.594940
456.8525, 1.759247
457.3347, 0.8702090
457.8168, 0.1726990
458.2989, 4.6417002E-02
458.7810, 0.8813780
459.2631, 1.521057
459.7452, 1.048370
460.2274, 0.2590940
460.7095, 9.7075999E-02
461.1916, 0.4833370
461.6737, 0.8310240
462.1558, 0.8171690
462.6379, 0.5866700
463.1201, 0.2146300
463.6022, 0.4492490
464.0843, 0.8537290
464.5664, 0.3920290
465.0485, 0.4025880
465.5306, 0.6780700
466.0128, 0.5780640
466.4949, 0.5841666
466.9770, 0.4534717
467.4591, 0.5955510
467.9412, 0.1034240
468.4233, 0.4353640
468.9055, 0.5016170
469.3876, 0.3026120
469.8697, 0.5045170
470.3518, 0.7800290
470.8339, 0.1631770
471.3160, 0.7401120
471.7982, 0.6462100
472.2803, 0.7749630
472.7624, 1.867554
473.2445, 1.957062
473.7266, 1.229828
474.2087, 0.7413640
474.6909, 0.4927060
475.1730, 0.4466250
475.6551, 0.4681090
476.1372, 0.6376340
476.6193, 1.469879
477.1014, 3.236755
477.5836, 5.023041
478.0657, 5.598999
478.5478, 5.248566
479.0299, 4.789459
479.5120, 4.444275
479.9941, 4.269989
480.4763, 4.391541
480.9584, 4.784882
481.4405, 5.200531
481.9226, 5.648132
482.4047, 5.982025
482.8868, 6.023529
483.3690, 5.459900
483.8511, 5.191986
484.3332, 5.678802
484.8153, 6.581848
485.2974, 7.357300
485.7795, 7.946777
486.2617, 8.368439
486.7438, 8.462311
487.2259, 8.245087
487.7080, 8.598450
488.1901, 8.094269
488.6722, 11.10730
489.1544, 13.09616
489.6365, 14.11578
490.1186, 11.26239
490.6007, 13.41083
491.0828, 13.55521
491.5649, 13.61795
492.0471, 16.47156
492.5292, 14.18353
493.0113, 16.99326
493.4934, 17.76831
493.9755, 19.47467
494.4576, 19.16443
494.9398, 19.47717
495.4219, 21.80695
495.9040, 23.01956
496.3861, 22.47653
496.8682, 21.79654
497.3503, 21.97147
497.8325, 22.37094
498.3146, 22.94128
498.7967, 23.60815
499.2788, 24.61142
499.7609, 25.45819
500.2430, 25.71182
500.7252, 25.53870
501.2073, 25.66754
501.6894, 26.52420
502.1715, 27.64377
502.6536, 28.91541
503.1357, 30.60873
503.6179, 31.57837
504.1000, 31.23105
504.5821, 30.55588
505.0642, 30.56830
505.5463, 31.59372
506.0284, 32.56744
506.5106, 33.18466
506.9927, 33.58286
507.4748, 34.30325
507.9569, 35.48065
508.4390, 36.67471
508.9211, 37.64777
509.4033, 38.40948
509.8854, 39.14307
510.3675, 39.87689
510.8496, 40.57910
511.3317, 41.19781
511.8138, 41.74738
512.2960, 42.25903
512.7781, 42.72369
513.2602, 43.21106
513.7423, 43.74307
514.2244, 44.31412
514.7065, 44.98511
515.1887, 46.18262
515.6708, 47.28467
516.1529, 47.61356
516.6350, 47.13678
517.1171, 46.86682
517.5992, 47.26584
518.0814, 48.04968
518.5635, 49.02075
519.0456, 50.52826
519.5277, 51.51752
520.0098, 51.60312
520.4919, 51.33310
520.9741, 51.47275
521.4562, 52.01822
521.9383, 53.00266
522.4204, 54.59818
522.9025, 56.61865
523.3846, 58.07660
523.8668, 58.90906
524.3489, 59.76230
524.8310, 61.15939
525.3131, 63.01440
525.7952, 64.59625
526.2773, 65.87790
526.7595, 66.99969
527.2416, 67.98209
527.7237, 68.94565
528.2058, 70.17313
528.6879, 72.06607
529.1700, 73.71082
529.6522, 73.75830
530.1343, 72.89740
530.6164, 72.88193
531.0985, 75.53369
531.5806, 78.57608
532.0627, 80.50632
532.5449, 81.14371
533.0270, 81.93991
533.5091, 83.54498
533.9912, 85.28802
534.4733, 86.67523
534.9554, 87.51923
535.4376, 88.19305
535.9197, 88.47055
536.4018, 88.67398
536.8839, 89.45667
537.3660, 91.18076
537.8481, 92.49197
538.3303, 92.93491
538.8124, 92.67358
539.2945, 92.60699
539.7766, 92.75687
540.2587, 92.94800
540.7408, 93.06497
541.2230, 93.12967
541.7051, 93.36819
542.1872, 93.87170
542.6693, 93.95343
543.1514, 92.35986
543.6335, 89.95706
544.1157, 88.35925
544.5978, 88.75397
545.0799, 89.24863
545.5620, 88.19186
546.0441, 86.15942
546.5262, 84.59473
547.0084, 84.58136
547.4905, 84.64374
547.9726, 84.14267
548.4547, 82.99701
548.9368, 81.84177
549.4189, 80.55325
549.9011, 79.36426
550.3832, 78.41357
550.8653, 77.79187
551.3474, 77.23926
551.8295, 76.87225
552.3116, 76.43863
552.7938, 75.45117
553.2759, 73.83389
553.7580, 72.47202
554.2401, 71.75031
554.7222, 71.30951
555.2043, 70.22028
555.6865, 68.53979
556.1686, 66.67831
556.6507, 64.55795
557.1328, 62.55551
557.6149, 61.35132
558.0970, 60.99304
558.5792, 60.69373
559.0613, 59.84589
559.5434, 58.81570
560.0255, 57.98853
560.5076, 57.56506
560.9897, 57.11011
561.4719, 56.37332
561.9540, 55.56604
562.4361, 55.00742
562.9182, 55.01593
563.4003, 54.94797
563.8824, 54.62552
564.3646, 54.10941
564.8467, 53.82040
565.3288, 53.84677
565.8109, 53.83990
566.2930, 53.76242
566.7751, 52.49011
567.2573, 53.19403
567.7394, 53.40314
568.2215, 51.84546
568.7036, 52.40219
569.1857, 52.00836
569.6678, 51.50507
570.1500, 52.14920
570.6321, 50.47122
571.1142, 50.95102
571.5963, 50.46841
572.0784, 50.32135
572.5605, 49.22006
573.0427, 49.30392
573.5248, 48.65399
574.0069, 49.25079
574.4890, 47.99432
574.9711, 48.30881
575.4532, 48.65561
575.9354, 48.19443
576.4175, 46.56094
576.8996, 45.28796
577.3817, 44.51352
577.8638, 43.97842
578.3459, 43.46490
578.8281, 42.98993
579.3102, 42.52234
579.7923, 42.14304
580.2744, 41.63754
580.7565, 40.49863
581.2386, 38.75903
581.7208, 37.05661
582.2029, 35.74670
582.6850, 34.52542
583.1671, 32.61691
583.6492, 30.15808
584.1313, 27.97058
584.6134, 26.75964
585.0955, 25.93155
585.5776, 24.90390
586.0598, 23.58768
586.5419, 22.38361
587.0240, 21.80753
587.5061, 21.21188
587.9882, 20.04633
588.4703, 17.43420
588.9525, 15.36203
589.4346, 14.22186
589.9167, 13.51993
590.3988, 12.40695
590.8809, 10.61932
591.3630, 9.114716
591.8452, 8.130829
592.3273, 7.577179
592.8094, 7.190033
593.2915, 6.978607
593.7736, 6.724731
594.2557, 6.242615
594.7379, 5.629547
595.2200, 5.192719
595.7021, 4.942474
596.1842, 4.579773
596.6663, 3.718048
597.1484, 2.675476
597.6306, 1.824554
598.1127, 1.270294
598.5948, 0.8886720
599.0769, 0.6208190
599.5590, 0.5015870
600.0411, 0.5744320
600.5233, 1.473175
601.0054, 1.827789
601.4875, 1.172882
601.9696, 1.914778
602.4517, 1.277405
602.9338, 2.240570
603.4160, 2.787109
603.8981, 2.663269
604.3802, 1.971039
604.8623, 1.851257
605.3444, 2.372894
605.8265, 2.914337
606.3087, 3.000854
606.7908, 2.742371
607.2729, 2.395813
607.7550, 1.969208
608.2371, 1.599121
608.7192, 1.487671
609.2014, 1.480804
609.6835, 1.346619
610.1656, 0.9168700
610.6477, 0.5314030
611.1298, 0.4072270
611.6119, 0.4150390
612.0941, 0.3183900
612.5762, 0.4425274
613.0583, 0.4004820
613.5404, 0.6698910
614.0225, 0.8509220
614.5046, 0.8370060
614.9868, 0.5367430
615.4689, 0.2487490
615.9510, 0.1383060
616.4331, 0.1914060
616.9152, 4.4158999E-02
617.3973, 0.3406070
617.8795, 0.6053770
618.3616, 0.2581180
618.8437, 0.4397890
619.3258, 0.8566590
619.8079, 0.8964840
620.2900, 0.7290950
620.7722, 0.3348690
621.2543, 0.1207580
621.7364, 0.4056400
622.2185, 0.4911500
622.7006, 0.3432310
623.1827, 0.3151250
623.6649, 1.209747
624.1470, 1.682892
624.6291, 1.224365
625.1112, 0.8802800
625.5933, 0.9060360
626.0754, 1.246765
626.5576, 1.522827
627.0397, 1.722473
627.5218, 1.880890
628.0039, 1.949005
628.4860, 1.957520
628.9681, 2.208038
629.4503, 2.712067
629.9324, 3.331421
630.4145, 4.202087
630.8966, 5.047485
631.3787, 5.279572
631.8608, 4.651428
632.3430, 4.035431
632.8251, 3.994476
633.3072, 4.321442
633.7893, 4.759338
634.2714, 5.443848
634.7535, 5.999115
635.2357, 6.109436
635.7178, 6.068604
636.1999, 6.572998
636.6820, 7.968018
637.1641, 9.251678
637.6462, 10.13388
638.1284, 10.68811
638.6105, 11.27567
639.0926, 11.90637
639.5747, 12.46234
640.0568, 12.85342
640.5389, 13.11203
641.0211, 13.25586
641.5032, 13.29022
641.9853, 13.45105
642.4674, 13.83807
642.9495, 14.49194
643.4316, 15.58987
643.9138, 17.32788
644.3959, 18.77859
644.8780, 19.24036
645.3601, 19.35233
645.8422, 19.73267
646.3243, 20.57404
646.8065, 21.56784
647.2886, 22.78635
647.7707, 24.11584
648.2528, 25.43481
648.7349, 26.80771
649.2170, 27.82065
649.6992, 28.18423
650.1813, 28.30307
650.6634, 29.30502
651.1455, 31.12805
651.6276, 33.16840
652.1097, 35.32428
652.5919, 37.40161
653.0740, 39.03070
653.5561, 40.27914
654.0382, 41.77933
654.5203, 44.09155
655.0024, 46.58182
655.4846, 48.80969
655.9667, 50.60834
656.4488, 52.65588
656.9309, 55.02673
657.4130, 57.65375
657.8951, 60.54935
658.3773, 63.77255
658.8594, 67.06763
659.3415, 70.42816
659.8236, 73.79553
660.3057, 77.12851
660.7878, 80.41217
661.2700, 83.72345
661.7521, 87.08490
662.2342, 90.60611
662.7163, 94.58887
663.1984, 98.77634
663.6805, 102.6790
664.1627, 105.3721
664.6448, 108.3956
665.1269, 112.6571
665.6090, 118.0289
666.0911, 123.8401
666.5732, 131.3021
667.0554, 137.7676
667.5375, 141.9455
668.0196, 143.9118
668.5017, 147.2523
668.9838, 152.3443
669.4659, 157.8830
669.9481, 163.4147
670.4302, 168.8581
670.9123, 173.2105
671.3944, 176.3663
671.8765, 179.2594
672.3586, 182.9545
672.8408, 186.8885
673.3229, 190.1022
673.8050, 192.3770
674.2871, 194.2264
674.7692, 196.2554
675.2513, 197.8831
675.7335, 198.4863
676.2156, 197.8511
676.6977, 196.3394
677.1798, 193.8227
677.6619, 190.5070
678.1440, 186.5471
678.6262, 181.7135
679.1083, 176.8291
679.5904, 172.0574
680.0725, 167.2981
680.5546, 162.0757
681.0367, 156.3807
681.5189, 150.3357
682.0010, 143.7856
682.4831, 136.9915
682.9652, 129.9515
683.4473, 122.9005
683.9294, 116.3438
684.4116, 111.4332
684.8937, 106.5231
685.3758, 100.2588
685.8579, 92.54544
686.3400, 85.41428
686.8221, 79.32205
687.3043, 73.89600
687.7864, 69.02295
688.2685, 64.73874
688.7506, 60.89124
689.2327, 57.52905
689.7148, 54.38763
690.1970, 51.28815
690.6791, 48.18866
691.1612, 44.88312
691.6433, 41.30215
692.1254, 37.95871
692.6075, 35.60703
693.0897, 33.75818
693.5718, 31.58429
694.0539, 28.57321
694.5360, 25.74557
695.0181, 23.38422
695.5002, 21.52997
695.9824, 20.19330
696.4645, 19.74133
696.9466, 19.34125
697.4287, 19.01089
697.9108, 18.63281
698.3929, 17.79092
698.8751, 16.34265
699.3572, 15.26483
699.8393, 15.08838
700.3214, 15.30905
700.8035, 14.54269
701.2856, 12.96146
701.7678, 11.57675
702.2499, 11.11670
702.7320, 11.01123
703.2141, 10.74728
703.6962, 10.33578
704.1783, 10.00491
704.6605, 10.06595
705.1426, 10.03302
705.6247, 9.588440
706.1068, 8.627319
706.5889, 7.865326
707.0710, 7.271637
707.5532, 6.987122
708.0353, 7.286285
708.5174, 8.146118
708.9995, 8.284973
709.4816, 7.618195
709.9637, 6.778778
710.4459, 6.403595
710.9280, 6.301239
711.4101, 6.076111
711.8922, 5.626587
712.3743, 5.318604
712.8564, 5.366730
713.3386, 5.700836
713.8207, 6.261261
714.3028, 7.452576
714.7849, 8.233551
715.2670, 8.237213
715.7491, 7.993774
716.2313, 8.275208
716.7134, 9.300110
717.1955, 9.818939
717.6776, 9.446045
718.1597, 8.747192
718.6418, 8.949799
719.1240, 9.828003
719.6061, 10.29742
720.0882, 9.603607
720.5703, 8.750519
721.0524, 8.918518
721.5345, 9.700653
722.0167, 10.28461
722.4988, 10.15396
722.9809, 10.01843
723.4630, 10.37759
723.9451, 11.03036
724.4272, 10.93930
724.9094, 9.566467
725.3915, 8.245789
725.8736, 7.512085
726.3557, 7.310425
726.8378, 7.449615
727.3199, 7.917084
727.8021, 8.186340
728.2842, 7.797577
728.7663, 7.163818
729.2484, 7.075897
729.7305, 7.488586
730.2126, 7.706177
730.6948, 7.055908
731.1769, 6.269989
731.6590, 5.785553
732.1411, 5.637695
732.6232, 5.837891
733.1053, 6.781250
733.5875, 7.600830
734.0696, 7.709656
734.5517, 6.989014
735.0338, 6.443634
735.5159, 6.111542
735.9980, 5.804840
736.4802, 5.270660
736.9623, 4.625519
737.4444, 4.249573
737.9265, 4.232239
738.4086, 4.158691
738.8907, 3.353210
739.3729, 2.499084
739.8550, 2.442596
740.3371, 4.115479
740.8192, 5.037018
741.3013, 3.986725
741.7834, 2.490448
742.2656, 2.097290
742.7477, 3.187256
743.2298, 3.698425
743.7119, 3.265656
744.1940, 2.578186
744.6761, 2.796906
745.1583, 3.716949
745.6404, 4.351288
746.1225, 4.432648
746.6046, 4.168549
747.0867, 3.591827
747.5688, 2.852600
748.0510, 2.200165
748.5331, 1.523560
749.0152, 1.107117
749.4973, 1.180817
749.9794, 1.551025
750.4615, 1.829895
750.9437, 1.970428
751.4258, 2.163727
751.9079, 2.543213
752.3900, 2.920166
752.8721, 2.671265
753.3542, 1.879395
753.8364, 1.286499
754.3185, 1.275848
754.8006, 1.551056
755.2827, 1.901398
755.7648, 2.260956
756.2469, 2.446411
756.7291, 2.057739
757.2112, 1.854675
757.6933, 2.420105
758.1754, 3.466492
758.6575, 3.626648
759.1396, 2.395844
759.6218, 1.266022
760.1039, 0.7995610
760.5860, 0.8936770
761.0681, 0.9012760
761.5502, 0.7654420
762.0323, 0.3933110
762.5145, 0.6224370
762.9966, 0.5564550
763.4787, 0.3978780
763.9608, 0.9361880
764.4429, 0.3370060
764.9250, 0.7807010
765.4072, 1.165833
765.8893, 0.6686100
766.3714, 0.7992860
766.8535, 1.306244
767.3356, 0.2857060
767.8177, 0.7527160
768.2999, 1.042877
768.7820, 0.6604310
769.2641, 0.3467100
769.7462, 0.1042790
770.2283, 0.2591550
770.7104, 1.186279
771.1926, 2.154419
771.6747, 2.330170
772.1568, 1.710205
772.6389, 1.055115
773.1210, 0.4425050
773.6031, 8.3191000E-02
774.0853, 0.1980590
774.5674, 0.9091190
775.0495, 1.376465
775.5316, 1.423157
776.0137, 1.350708
776.4958, 1.451660
776.9780, 1.770569
777.4601, 1.279938
777.9422, 4.6204001E-02
778.4243, 1.044373
778.9064, 0.3997800
779.3885, 1.016449
779.8707, 1.866272
780.3528, 2.053528
780.8349, 1.740356
781.3170, 0.1069950
781.7991, 1.320953
782.2812, 1.176178
782.7633, 1.425659
783.2454, 2.375214
783.7275, 0.9384160
784.2097, 0.7857670
784.6918, 1.043121
785.1739, 1.2604000E-02
785.6560, 0.7853700
786.1381, 1.243225
786.6202, 1.384338
787.1024, 1.030060
787.5845, 0.4375000
788.0666, 0.1399230
788.5487, 0.2885440
789.0308, 0.5139470
789.5129, 1.034241
789.9951, 1.463593
790.4772, 1.414001
790.9593, 0.5407410
791.4414, 0.3351440
791.9235, 1.042084
792.4056, 1.927643
792.8878, 2.245270
793.3699, 2.093567
793.8520, 1.932037
794.3341, 1.817902
794.8162, 1.764984
795.2983, 1.815491
795.7805, 1.912415
796.2626, 2.015076
796.7447, 2.149323
797.2268, 2.239349
797.7089, 2.502167
798.1910, 2.546814
798.6732, 1.946136
799.1553, 0.3057860
799.6374, 0.4476010
800.1195, 0.1707150
800.6016, 0.6765140
801.0837, 2.008270
801.5659, 3.525085
802.0480, 4.238159
802.5301, 3.942505
803.0122, 3.334595
803.4943, 2.790558
803.9764, 2.258911
804.4586, 1.628876
804.9407, 0.6219180
805.4228, 0.1881100
805.9049, 0.6911930
806.3870, 1.459900
806.8691, 1.976501
807.3513, 2.207306
807.8334, 2.462189
808.3155, 2.784607
808.7976, 2.970795
809.2797, 2.693817
809.7618, 2.150024
810.2440, 1.702087
810.7261, 1.396606
811.2082, 1.241089
811.6903, 1.191803
812.1724, 1.325714
812.6545, 1.823059
813.1367, 3.270691
813.6188, 3.502319
814.1009, 1.953766
814.5830, 0.1051640
815.0651, 0.7607730
815.5472, 0.6907960
816.0294, 0.2291870
816.5115, 0.6455690
816.9936, 1.272034
817.4757, 0.6650090
817.9578, 0.3726810
818.4399, 0.8001710
818.9221, 0.3392640
819.4042, 9.4848998E-02
819.8863, 8.3618000E-02
820.3684, 2.0081000E-02
820.8505, 0.1766970
821.3326, 0.6700740
821.8148, 1.107727
822.2969, 1.510223
822.7790, 1.696289
823.2611, 1.312775
823.7432, 0.6112980
824.2253, 0.3916320
824.7075, 0.7033690
825.1896, 1.061462
825.6717, 1.149109
826.1538, 1.079651
826.6359, 0.8699650
827.1180, 0.4249270
827.6002, 0.4165040
828.0823, 1.433167
828.5644, 2.233612
829.0465, 1.969421
829.5286, 0.6164250
830.0107, 0.3161620
830.4929, 0.8063050
830.9750, 0.9714360
831.4571, 0.7329410
831.9392, 0.2915650
832.4213, 0.7067260
832.9034, 0.3542790
833.3856, 0.9658810
833.8677, 1.152252
834.3498, 0.3568730
834.8319, 0.3204350
835.3140, 0.1196900
835.7961, 0.1211550
836.2783, 0.1641402
836.7604, 0.4624630
837.2425, 0.4966740
837.7246, 0.5645750
838.2067, 1.038605
838.6888, 0.6293330
839.1710, 0.4884950
839.6531, 1.164734
840.1352, 1.359100
840.6173, 0.8442380
841.0994, 1.338196
841.5815, 2.6245000E-02
842.0637, 0.2558290
842.5458, 1.149384
843.0279, 0.6655270
843.5100, 1.167847
843.9921, 1.297272
844.4742, 0.2727660
844.9564, 1.108643
845.4385, 1.208313
845.9206, 7.6600001E-03
846.4027, 1.264252
846.8848, 0.2291870
847.3669, 1.9501001E-02
847.8491, 0.4299620
848.3312, 0.1927800
848.8133, 0.9675900
849.2954, 0.7581180
849.7775, 0.4654850
850.2596, 0.5581670
850.7418, 0.3458860
851.2239, 0.5850220
851.7060, 0.2401430
852.1881, 0.2460020
852.6702, 0.3670960
853.1523, 0.7937010
853.6345, 2.037415
854.1166, 3.042908
854.5987, 2.747711
855.0808, 1.751251
855.5629, 1.216614
856.0450, 1.702850
856.5272, 2.155945
857.0093, 2.523163
857.4914, 2.705383
857.9735, 2.567352
858.4556, 2.150879
858.9377, 1.792511
859.4199, 1.556488
859.9020, 1.464386
860.3841, 1.581390
860.8662, 1.860626
861.3483, 2.256531
861.8304, 2.917450
862.3126, 3.390625
862.7947, 3.295380
863.2768, 3.122803
863.7589, 3.381439
864.2410, 4.177155
864.7231, 4.704926
865.2053, 4.837402
865.6874, 4.982605
866.1695, 5.840332
866.6516, 6.969330
867.1337, 7.425415
867.6158, 6.994843
868.0980, 6.458832
868.5801, 6.005280
869.0622, 5.775421
869.5443, 5.979095
870.0264, 6.764954
870.5085, 7.171051
870.9907, 7.096436
871.4728, 7.019318
871.9549, 7.220306
872.4370, 7.613617
872.9191, 8.123535
873.4012, 8.834961
873.8834, 9.704376
874.3655, 11.04846
874.8476, 12.16541
875.3297, 12.32904
875.8118, 11.49045
876.2939, 11.09628
876.7761, 11.55966
877.2582, 12.10855
877.7403, 12.45990
878.2224, 12.62952
878.7045, 12.60513
879.1866, 12.43143
879.6688, 12.55435
880.1509, 13.47931
880.6330, 14.59039
881.1151, 15.51337
881.5972, 16.11945
882.0793, 16.06845
882.5615, 14.16498
883.0436, 13.02951
883.5257, 13.45206
884.0078, 14.79553
884.4899, 15.76163
884.9720, 16.34967
885.4542, 16.34583
885.9363, 15.47363
886.4184, 14.59079
886.9005, 15.01782
887.3826, 16.17239
887.8647, 17.08310
888.3469, 17.55078
888.8290, 17.65204
889.3111, 17.20258
889.7932, 16.55118
890.2753, 15.86325
890.7574, 15.05249
891.2396, 15.20346
891.7217, 16.56207
892.2038, 17.96677
892.6859, 18.25195
893.1680, 17.79175
893.6501, 17.42892
894.1323, 17.35019
894.6144, 17.17065
895.0965, 16.72141
895.5786, 16.30771
896.0607, 16.27811
896.5428, 16.69342
897.0250, 16.65833
897.5071, 16.01352
897.9892, 15.57428
898.4713, 16.18210
898.9534, 17.35687
899.4355, 17.44339
899.9177, 16.63876
900.3998, 15.95767
900.8819, 16.00235
901.3640, 16.26843
901.8461, 16.56326
902.3282, 16.75928
902.8104, 16.72665
903.2925, 16.28424
903.7746, 15.80103
904.2567, 15.49414
904.7388, 15.20877
905.2209, 14.73978
905.7031, 14.15781
906.1852, 13.60416
906.6673, 13.21951
907.1494, 12.82898
907.6315, 12.33322
908.1136, 11.78674
908.5958, 11.23108
909.0779, 10.48526
909.5600, 10.19736
910.0421, 10.68231
910.5242, 11.21704
911.0063, 10.59323
911.4885, 9.134399
911.9706, 8.718353
912.4527, 9.753082
912.9348, 10.51822
913.4169, 8.916565
913.8990, 6.891083
914.3812, 6.353638
914.8633, 8.041229
915.3454, 8.959656
915.8275, 8.581970
916.3096, 8.151581
916.7917, 8.602478
917.2739, 9.688080
917.7560, 9.682465
918.2381, 8.649994
918.7202, 7.430328
919.2023, 6.240509
919.6844, 5.354584
920.1666, 5.282318
920.6487, 5.799164
921.1308, 5.676086
921.6129, 4.027893
922.0950, 2.990784
922.5771, 3.369446
923.0593, 4.413635
923.5414, 4.083923
924.0235, 2.590515
924.5056, 1.324310
924.9877, 0.8055730
925.4698, 0.5628660
925.9520, 0.2373960
926.4341, 7.8368999E-02
926.9162, 0.2549130
927.3983, 5.8623999E-02
927.8804, 1.9104000E-02
928.3625, 0.7326350
928.8447, 1.495636
929.3268, 1.592468
929.8089, 1.133698
930.2910, 1.095612
930.7731, 1.591522
931.2552, 1.815063
931.7374, 1.586061
932.2195, 0.7391360
932.7016, 1.146820
933.1837, 0.3503720
933.6658, 0.1865540
934.1479, 1.251373
934.6301, 2.144135
935.1122, 2.110260
935.5943, 1.461700
936.0764, 1.614716
936.5585, 2.477753
937.0406, 3.330200
937.5228, 3.958923
938.0049, 4.289246
938.4870, 3.927734
938.9691, 3.256989
939.4512, 3.214478
939.9333, 4.315125
940.4155, 5.343262
940.8976, 6.129822
941.3797, 6.820038
941.8618, 7.621918
942.3439, 8.514221
942.8260, 9.374207
943.3082, 10.17813
943.7903, 11.00391
944.2724, 11.62878
944.7545, 12.47507
945.2366, 14.09851
945.7188, 17.02386
946.2009, 19.06598
946.6830, 20.12924
947.1651, 20.56384
947.6472, 20.03351
948.1293, 19.04031
948.6115, 20.13058
949.0936, 23.02820
949.5757, 25.54480
950.0578, 26.10007
950.5399, 26.09708
951.0220, 25.93668
951.5042, 25.88776
951.9863, 26.93164
952.4684, 29.71326
952.9505, 31.79453
953.4326, 32.36148
953.9147, 32.43564
954.3969, 34.10504
954.8790, 36.79129
955.3611, 38.86261
955.8432, 39.64182
956.3253, 40.26764
956.8074, 41.17657
957.2896, 42.30322
957.7717, 43.57285
958.2538, 44.92960
958.7359, 46.58502
959.2180, 48.50342
959.7001, 50.65878
960.1823, 53.74045
960.6644, 56.86426
961.1465, 57.54938
961.6286, 56.08652
962.1107, 55.44220
962.5928, 58.29556
963.0750, 60.94354
963.5571, 61.48041
964.0392, 60.56039
964.5213, 60.65982
965.0034, 61.90347
965.4855, 63.17996
965.9677, 64.30719
966.4498, 65.10403
966.9319, 65.00534
967.4140, 64.38528
967.8961, 63.95493
968.3782, 63.99359
968.8604, 64.14209
969.3425, 64.45740
969.8246, 64.77628
970.3067, 64.84583
970.7888, 64.60007
971.2709, 64.91550
971.7531, 65.86087
972.2352, 66.50159
972.7173, 65.66788
973.1994, 64.42847
973.6815, 64.04294
974.1636, 64.45737
974.6458, 64.28769
975.1279, 62.79205
975.6100, 61.40527
976.0921, 60.57004
976.5742, 60.05939
977.0563, 59.40808
977.5385, 58.55893
978.0206, 57.10004
978.5027, 54.50867
978.9848, 52.05664
979.4669, 50.86661
979.9490, 50.33020
980.4311, 49.70837
980.9132, 49.16159
981.3953, 47.92929
981.8774, 45.79684
982.3596, 43.54135
982.8417, 41.91547
983.3238, 40.72879
983.8059, 39.55231
984.2880, 38.32965
984.7701, 36.81860
985.2523, 34.43027
985.7344, 32.16580
986.2165, 30.68231
986.6986, 29.77167
987.1807, 28.62137
987.6628, 27.20004
988.1450, 25.90585
988.6271, 25.76556
989.1092, 25.45657
989.5913, 24.83078
990.0734, 23.88684
990.5555, 21.32925
991.0377, 21.04037
991.5198, 19.95584
992.0019, 18.91611
992.4840, 19.17819
992.9661, 17.27148
993.4482, 17.67609
993.9304, 17.27100
994.4125, 17.35452
994.8946, 16.63657
995.3767, 16.27203
995.8588, 16.87112
996.3409, 17.06219
996.8231, 16.56644
997.3052, 17.16125
997.7873, 16.03281
998.2694, 16.56845
998.7515, 15.03656
999.2336, 14.59195
999.7158, 14.86902
1000.198, 15.60086
1000.680, 15.66461
1001.162, 14.47089
1001.644, 13.57190
1002.126, 14.74158
1002.608, 16.13605
1003.091, 15.91202
1003.573, 13.66794
1004.055, 12.14026
1004.537, 11.46762
1005.019, 10.80243
1005.501, 9.381531
1005.983, 7.686554
1006.465, 6.520599
1006.948, 5.803345
1007.430, 5.149719
1007.912, 4.366241
1008.394, 3.692230
1008.876, 3.105133
1009.358, 2.717682
1009.840, 2.935822
1010.322, 3.726166
1010.804, 3.790527
1011.287, 2.786743
1011.769, 1.775940
1012.251, 1.745331
1012.733, 2.223480
1013.215, 2.884918
1013.697, 3.790009
1014.179, 4.067505
1014.661, 3.615326
1015.143, 2.690582
1015.626, 1.076416
1016.108, 0.7378230
1016.590, 1.001434
1017.072, 9.0026997E-02
1017.554, 0.5845030
1018.036, 4.3488000E-02
1018.518, 0.4985660
1019.000, 0.6889340
1019.483, 0.5049740
1019.965, 0.1821900
1020.447, 1.555725
1020.929, 2.395935
1021.411, 2.604736
1021.893, 2.369141
1022.375, 1.662689
1022.857, 0.7355650
1023.339, 0.2388000
1023.822, 1.218842
1024.304, 1.708771
1024.786, 1.220825
1025.268, 0.7006840
1025.750, 0.3426210
1026.232, 0.1804200
1026.714, 0.5559080
1027.196, 0.2968545
1027.679, 0.4337724
1028.161, 0.4802860
1028.643, 0.5614010
1029.125, 1.083557
1029.607, 1.241394
1030.089, 1.149719
1030.571, 0.7064820
1031.053, 0.4945980
1031.536, 0.5538330
1032.018, 0.6080930
1032.500, 0.3281250
1032.982, 2.7771000E-02
1033.464, 2.4871999E-02
1033.946, 0.2917480
1034.428, 0.7020260
1034.910, 1.504974
1035.392, 1.873505
1035.875, 1.475769
1036.357, 0.7394410
1036.839, 0.2516170
1037.321, 4.8859000E-02
1037.803, 0.6592100
1038.285, 2.298370
1038.767, 3.773895
1039.249, 4.035400
1039.731, 3.795929
1040.214, 3.537018
1040.696, 3.291809
1041.178, 3.377930
1041.660, 3.881744
1042.142, 4.393890
1042.624, 4.782898
1043.106, 5.020203
1043.588, 5.076935
1044.071, 4.949249
1044.553, 4.621857
1045.035, 3.707764
1045.517, 3.188934
1045.999, 3.505859
1046.481, 4.007599
1046.963, 4.076660
1047.445, 3.745605
1047.927, 3.396942
1048.410, 3.053711
1048.892, 3.125854
1049.374, 4.392273
1049.856, 5.737183
1050.338, 6.342224
1050.820, 6.297058
1051.302, 6.143402
1051.784, 5.736450
1052.266, 5.818268
1052.749, 6.670685
1053.231, 7.686432
1053.713, 8.091034
1054.195, 8.052521
1054.677, 7.737366
1055.159, 7.069122
1055.641, 6.793945
1056.123, 7.528870
1056.606, 8.216614
1057.088, 8.302002
1057.570, 7.944092
1058.052, 8.061066
1058.534, 8.585144
1059.016, 9.087860
1059.498, 9.352386
1059.980, 9.559479
1060.463, 9.902039
1060.945, 10.21451
1061.427, 10.20264
1061.909, 9.627106
1062.391, 9.694183
1062.873, 10.53494
1063.355, 11.44961
1063.837, 11.85269
1064.319, 11.94446
1064.802, 11.96066
1065.284, 11.91473
1065.766, 11.80313
1066.248, 11.48712
1066.730, 11.30090
1067.212, 11.33722
1067.694, 11.48831
1068.176, 11.44009
1068.658, 11.32684
1069.141, 11.78418
1069.623, 13.04156
1070.105, 14.05490
1070.587, 13.95554
1071.069, 13.64124
1071.551, 13.78571
1072.033, 14.33810
1072.515, 14.42142
1072.998, 14.02393
1073.480, 13.49219
1073.962, 12.63742
1074.444, 12.18671
1074.926, 13.63416
1075.408, 15.78735
1075.890, 16.78702
1076.372, 15.66629
1076.854, 14.44482
1077.337, 12.98206
1077.819, 11.85007
1078.301, 11.86145
1078.783, 12.43985
1079.265, 12.01993
1079.747, 10.80997
1080.229, 10.04672
1080.711, 10.88159
1081.193, 11.45023
1081.676, 11.13937
1082.158, 10.38803
1082.640, 9.939362
1083.122, 9.756348
1083.604, 9.478821
1084.086, 9.038086
1084.568, 8.616943
1085.050, 8.436981
1085.532, 8.263672
1086.015, 8.036011
1086.497, 7.695435
1086.979, 6.741669
1087.461, 4.983429
1087.943, 4.038116
1088.425, 4.767303
1088.907, 5.828339
1089.389, 5.348724
1089.872, 4.122009
1090.354, 3.291992
1090.836, 3.239960
1091.318, 3.246185
1091.800, 3.280701
1092.282, 3.235931
1092.764, 2.909790
1093.246, 2.545532
1093.729, 3.020294
1094.211, 4.006165
1094.693, 4.549438
1095.175, 4.042114
1095.657, 3.274261
1096.139, 2.144135
1096.621, 1.261017
1097.103, 1.231598
1097.585, 1.935516
1098.068, 2.368134
1098.550, 2.510254
1099.032, 2.462921
1099.514, 1.999023
1099.996, 1.733856
1100.478, 2.387054
1100.960, 3.582306
1101.442, 3.694855
1101.924, 2.324890
1102.407, 1.901672
1102.889, 3.150146
1103.371, 4.582245
1103.853, 4.176727
1104.335, 3.199677
1104.817, 3.271118
1105.299, 4.750214
1105.781, 5.722778
1106.264, 5.884613
1106.746, 5.841736
1107.228, 5.838226
1107.710, 5.780853
1108.192, 5.210175
1108.674, 4.443054
1109.156, 4.273193
1109.638, 5.320038
1110.120, 6.031860
1110.603, 5.805481
1111.085, 5.397034
1111.567, 5.263519
1112.049, 5.372070
1112.531, 5.533203
1113.013, 5.693176
1113.495, 5.554382
1113.977, 4.508728
1114.459, 3.649902
1114.942, 3.483887
1115.424, 3.828430
1115.906, 4.634796
1116.388, 6.031586
1116.870, 6.446320
1117.352, 5.773224
1117.834, 5.048401
1118.316, 5.039459
1118.799, 5.331940
1119.281, 5.717957
1119.763, 6.062927
1120.245, 5.843506
1120.727, 4.780121
1121.209, 4.200317
1121.691, 4.357666
1122.173, 4.933258
1122.656, 5.960999
1123.138, 6.936646
1123.620, 6.968536
1124.102, 5.931885
1124.584, 5.472595
1125.066, 5.975922
1125.548, 6.696075
1126.030, 7.535980
1126.512, 8.218018
1126.995, 8.027283
1127.477, 7.261414
1127.959, 6.588165
1128.441, 6.152435
1128.923, 5.893677
1129.405, 5.969330
1129.887, 6.027649
1130.369, 5.876648
1130.851, 5.564117
1131.334, 5.285492
1131.816, 5.037781
1132.298, 4.775879
1132.780, 4.177948
1133.262, 4.026733
1133.744, 5.321106
1134.226, 6.744415
1134.708, 6.981720
1135.191, 5.931274
1135.673, 5.229858
1136.155, 4.870239
1136.637, 4.695526
1137.119, 4.666962
1137.601, 4.723724
1138.083, 5.024902
1138.565, 5.324036
1139.047, 5.100220
1139.530, 4.225616
1140.012, 3.538208
1140.494, 3.118988
1140.976, 2.826324
1141.458, 2.434509
1141.940, 2.185059
1142.422, 2.537445
1142.904, 3.330475
1143.386, 3.541412
1143.869, 2.818024
1144.351, 2.477783
1144.833, 2.849213
1145.315, 3.341766
1145.797, 3.099182
1146.279, 2.552338
1146.761, 2.435883
1147.243, 2.856384
1147.726, 2.709473
1148.208, 1.375854
1148.690, 0.5175480
1149.172, 0.8237300
1149.654, 0.1423846
1150.136, 1.107483
1150.618, 6.7626998E-02
1151.100, 0.3051150
1151.583, 0.4316100
1152.065, 1.113312
1152.547, 1.781982
1153.029, 1.809113
1153.511, 2.074935
1153.993, 1.441498
1154.475, 1.753540
1154.957, 0.8322750
1155.439, 2.3132000E-02
1155.922, 0.3095700
1156.404, 0.2285770
1156.886, 0.5338750
1157.368, 1.427673
1157.850, 2.307495
1158.332, 3.075256
1158.814, 2.535706
1159.296, 0.8783570
1159.778, 0.6541440
1160.261, 1.580170
1160.743, 2.023651
1161.225, 1.802246
1161.707, 1.253082
1162.189, 0.5520320
1162.671, 0.3272090
1163.153, 0.1760860
1163.635, 0.9893490
1164.118, 0.7340779
1164.600, 1.559540
1165.082, 0.9673770
1165.564, 0.7990420
1166.046, 0.9076540
1166.528, 1.000336
1167.010, 1.068726
1167.492, 1.303497
1167.974, 1.744965
1168.457, 2.035706
1168.939, 1.653625
1169.421, 1.205505
1169.903, 1.254150
1170.385, 1.671539
1170.867, 1.800751
1171.349, 1.582367
1171.831, 1.499115
1172.313, 1.676758
1172.796, 1.737915
1173.278, 1.025574
1173.760, 0.2146300
1174.242, 8.1207000E-02
1174.724, 0.1479800
1175.206, 0.3092350
1175.688, 0.1929630
1176.170, 0.6703280
1176.653, 0.6947020
1177.135, 1.606873
1177.617, 2.463898
1178.099, 3.061493
1178.581, 3.040497
1179.063, 2.273224
1179.545, 1.617096
1180.027, 0.9435120
1180.510, 0.9342650
1180.992, 2.168304
1181.474, 3.537720
1181.956, 3.078369
1182.438, 1.771576
1182.920, 1.203003
1183.402, 1.899139
1183.884, 2.492767
1184.366, 2.935303
1184.849, 3.258453
1185.331, 3.500702
1185.813, 3.621155
1186.295, 3.476959
1186.777, 3.176117
1187.259, 2.917114
1187.741, 2.776459
1188.223, 2.630646
1188.705, 2.451935
1189.188, 2.319214
1189.670, 2.264801
1190.152, 2.300293
1190.634, 2.500275
1191.116, 2.802765
1191.598, 3.061279
1192.080, 3.028320
1192.562, 3.311829
1193.045, 4.125122
1193.527, 4.849182
1194.009, 4.832092
1194.491, 4.406372
1194.973, 4.310852
1195.455, 4.492218
1195.937, 4.735626
1196.419, 4.984222
1196.901, 5.311371
1197.384, 5.905426
1197.866, 6.217072
1198.348, 5.287537
1198.830, 3.811035
1199.312, 3.690979
1199.794, 4.716034
1200.276, 5.492798
1200.758, 5.407471
1201.240, 5.081573
1201.723, 4.506012
1202.205, 3.942627
1202.687, 3.757111
1203.169, 3.825684
1203.651, 3.891724
1204.133, 3.928223
1204.615, 3.869598
1205.097, 3.462433
1205.580, 3.269257
1206.062, 3.360535
1206.544, 3.735046
1207.026, 4.663574
1207.508, 5.865875
1207.990, 6.624084
1208.472, 6.840942
1208.954, 6.745422
1209.437, 6.193848
1209.919, 5.738464
1210.401, 5.484680
1210.883, 5.388336
1211.365, 5.498901
1211.847, 5.574341
1212.329, 5.101715
1212.811, 4.055328
1213.293, 3.906006
1213.776, 6.350311
1214.258, 7.982758
1214.740, 7.623993
1215.222, 6.266907
1215.704, 5.794250
1216.186, 5.877441
1216.668, 5.858185
1217.150, 5.677307
1217.632, 5.450562
1218.115, 5.029358
1218.597, 4.672546
1219.079, 4.444702
1219.561, 4.331360
1220.043, 4.362335
1220.525, 4.446716
1221.007, 4.535583
1221.489, 4.681091
1221.972, 4.570465
1222.454, 3.624664
1222.936, 3.325195
1223.418, 4.558655
1223.900, 6.407257
1224.382, 6.885986
1224.864, 6.456085
1225.346, 6.133148
1225.828, 6.305420
1226.311, 5.834930
1226.793, 4.023926
1227.275, 2.752289
1227.757, 3.147461
1228.239, 4.313263
1228.721, 4.358856
1229.203, 3.725433
1229.685, 3.337280
1230.167, 3.566681
1230.650, 3.548920
1231.132, 3.016724
1231.614, 2.676208
1232.096, 3.018829
1232.578, 3.670044
1233.060, 4.076416
1233.542, 4.255341
1234.024, 4.067230
1234.507, 3.227875
1234.989, 2.898895
1235.471, 3.354980
1235.953, 3.563354
1236.435, 2.534027
1236.917, 1.395996
1237.399, 2.775085
1237.881, 2.078918
1238.364, 1.939941
1238.846, 3.074524
1239.328, 2.092102
1239.810, 3.459564
1240.292, 4.911194
1240.774, 5.059692
1241.256, 4.561584
1241.738, 4.134888
1242.220, 3.746613
1242.703, 3.311920
1243.185, 2.703186
1243.667, 2.339020
1244.149, 2.180298
1244.631, 2.480469
1245.113, 3.957581
1245.595, 5.430176
1246.077, 5.213104
1246.559, 4.157349
1247.042, 3.813446
1247.524, 4.447388
1248.006, 5.370056
1248.488, 6.668518
1248.970, 7.205688
1249.452, 5.473969
1249.934, 3.390045
1250.416, 2.614075
1250.899, 2.617310
1251.381, 2.457855
1251.863, 2.040131
1252.345, 2.163300
1252.827, 2.816254
1253.309, 3.193420
1253.791, 2.212067
1254.273, 1.393341
1254.755, 2.256805
1255.238, 3.611328
1255.720, 3.686829
1256.202, 2.395325
1256.684, 1.526642
1257.166, 1.105347
1257.648, 1.047211
1258.130, 1.611511
1258.612, 2.156372
1259.094, 2.456787
1259.577, 2.525604
1260.059, 2.310242
1260.541, 1.848236
1261.023, 1.531525
1261.505, 1.378571
1261.987, 1.431000
1262.469, 1.941864
1262.951, 2.382050
1263.434, 2.564636
1263.916, 2.619751
1264.398, 2.593170
1264.880, 2.508270
1265.362, 2.495148
1265.844, 2.526520
1266.326, 2.557953
1266.808, 2.441559
1267.291, 2.437714
1267.773, 2.591187
1268.255, 2.837585
1268.737, 3.273346
1269.219, 3.673492
1269.701, 3.303314
1270.183, 2.367706
1270.665, 1.703766
1271.147, 1.826477
1271.630, 1.969940
1272.112, 2.120667
1272.594, 2.172028
1273.076, 1.962158
1273.558, 1.632660
1274.040, 1.259888
1274.522, 0.9648130
1275.004, 1.110107
1275.486, 2.078613
1275.969, 2.561096
1276.451, 2.428253
1276.933, 2.072662
1277.415, 1.742310
1277.897, 1.434692
1278.379, 0.8981020
1278.861, 0.4556880
1279.343, 1.021881
1279.825, 3.072327
1280.308, 3.749481
1280.790, 2.847900
1281.272, 1.775879
1281.754, 1.368988
1282.236, 1.339172
1282.718, 1.721832
1283.200, 2.228455
1283.682, 2.351837
1284.165, 2.072174
1284.647, 2.147156
1285.129, 2.573578
1285.611, 2.810089
1286.093, 2.276001
1286.575, 1.774384
1287.057, 1.649567
1287.539, 1.770172
1288.021, 2.070374
1288.504, 2.512817
1288.986, 3.063873
1289.468, 3.629669
1289.950, 3.694580
1290.432, 2.406433
1290.914, 1.490692
1291.396, 1.470734
1291.878, 1.567413
1292.360, 0.6916200
1292.843, 0.5158080
1293.325, 6.1554000E-02
1293.807, 1.534912
1294.289, 2.340851
1294.771, 0.7190250
1295.253, 8.3068997E-02
1295.735, 0.1903380
1296.217, 0.8603520
1296.700, 1.708527
1297.182, 2.341919
1297.664, 1.712402
1298.146, 2.390076
1298.628, 2.494110
1299.110, 2.202515
1299.592, 3.120972
1300.074, 2.840851
1300.557, 2.172760
1301.039, 1.525085
1301.521, 0.9654540
1302.003, 0.5097050
1302.485, 0.1543580
1302.967, 5.6759999E-03
1303.449, 0.0000000E+00
##END=



