##NAMES=Manaksite
##RRUFFID=R060693
##IDEAL CHEMISTRY=KNaMn^2+^Si_4_O_10_
##LOCALITY=Palitra pegmatite, Kedykverpakhk Mountain, Lovozero massif, Kola Peninsula, Russia
##OWNER=RRUFF
##SOURCE=Michael Scott
##DESCRIPTION=Pale brown massive associated with grayish-green bario-olgite, R060614, purple ussingite and colorless serandite
##STATUS=The identification of this mineral is confirmed by single-crystal X-ray diffraction and chemical analysis.
##URL=rruff.info/R060693
##MEASURED CHEMISTRY=(K_0.98_Na_0.02_)_Σ=1_Na_1.00_(Mn^2+^_0.78_Fe^2+^_0.21_Mg_0.01_)_Σ=1_Si_4.00_O_10_
146.4391, 7.8612998E-02
146.9212, 3.5659999E-02
147.4033, 0.6454470
147.8854, 1.435989
148.3675, 2.142792
148.8497, 2.933456
149.3318, 3.713867
149.8139, 4.482635
150.2960, 5.361481
150.7781, 6.209442
151.2602, 7.226471
151.7424, 8.502838
152.2245, 10.19977
152.7066, 11.94058
153.1887, 13.62503
153.6708, 15.25311
154.1529, 17.09747
154.6351, 19.32806
155.1172, 21.70827
155.5993, 24.07352
156.0814, 26.79405
156.5635, 29.12492
157.0456, 30.55879
157.5278, 31.08447
158.0099, 32.33395
158.4920, 34.99998
158.9741, 38.36748
159.4562, 41.80766
159.9383, 45.35616
160.4205, 48.79218
160.9026, 51.93979
161.3847, 54.76862
161.8668, 57.79330
162.3489, 61.31416
162.8310, 65.10861
163.3132, 68.91689
163.7953, 72.81798
164.2774, 76.58012
164.7595, 80.04703
165.2416, 83.17984
165.7237, 86.14854
166.2059, 89.23375
166.6880, 92.20567
167.1701, 94.71527
167.6522, 97.03317
168.1343, 98.57153
168.6164, 98.91936
169.0986, 98.00566
169.5807, 96.01360
170.0628, 93.29840
170.5449, 89.61598
171.0270, 84.48798
171.5091, 76.48755
171.9913, 67.52104
172.4734, 59.39021
172.9555, 52.37393
173.4376, 45.97487
173.9197, 39.76587
174.4018, 33.80278
174.8840, 28.29898
175.3661, 23.45265
175.8482, 19.15750
176.3303, 15.30183
176.8124, 11.84213
177.2945, 8.853088
177.7767, 6.475067
178.2588, 4.682816
178.7409, 3.395737
179.2230, 2.733139
179.7051, 2.477768
180.1872, 2.294083
180.6694, 2.021240
181.1515, 1.719162
181.6336, 1.946548
182.1157, 2.580704
182.5978, 3.018555
183.0799, 2.640030
183.5621, 1.686172
184.0442, 1.163620
184.5263, 1.497772
185.0084, 2.256180
185.4905, 2.733551
185.9726, 2.941849
186.4547, 3.089554
186.9369, 3.287613
187.4190, 3.548401
187.9011, 3.943237
188.3832, 4.585236
188.8653, 5.286713
189.3474, 5.607727
189.8296, 5.544067
190.3117, 5.341797
190.7938, 5.116058
191.2759, 4.890152
191.7580, 4.860443
192.2401, 5.133362
192.7223, 5.597687
193.2044, 5.978745
193.6865, 6.290634
194.1686, 6.431366
194.6507, 6.218201
195.1328, 5.669586
195.6150, 5.179886
196.0971, 4.806656
196.5792, 4.567413
197.0613, 4.616592
197.5434, 5.013733
198.0255, 5.407608
198.5077, 5.357651
198.9898, 4.837662
199.4719, 4.520386
199.9540, 4.695450
200.4361, 5.211731
200.9182, 5.170273
201.4004, 4.444046
201.8825, 3.550217
202.3646, 3.005630
202.8467, 2.849197
203.3288, 2.773727
203.8109, 2.745056
204.2931, 2.752014
204.7752, 2.593948
205.2573, 2.218231
205.7394, 1.774384
206.2215, 1.385788
206.7036, 1.039841
207.1858, 0.8361050
207.6679, 0.8529050
208.1500, 1.067276
208.6321, 1.126923
209.1142, 0.9995570
209.5963, 0.7764590
210.0785, 0.5453950
210.5606, 0.3058620
211.0427, 6.4896002E-02
211.5248, 0.1773990
212.0069, 0.4205020
212.4890, 0.6584010
212.9712, 0.8714900
213.4533, 1.109772
213.9354, 1.465408
214.4175, 2.033676
214.8996, 2.434006
215.3817, 2.530869
215.8639, 2.322937
216.3460, 2.241547
216.8281, 2.363754
217.3102, 2.512558
217.7923, 2.481003
218.2744, 2.211731
218.7566, 1.915283
219.2387, 1.663406
219.7208, 1.458847
220.2029, 1.116776
220.6850, 0.5796360
221.1671, 2.2384999E-02
221.6493, 0.5311130
222.1314, 0.9035190
222.6135, 1.289383
223.0956, 1.696487
223.5777, 2.126572
224.0598, 2.669342
224.5420, 3.348022
225.0241, 4.118530
225.5062, 4.933838
225.9883, 5.730545
226.4704, 6.699173
226.9525, 7.893250
227.4347, 9.337784
227.9168, 10.78490
228.3989, 12.31593
228.8810, 13.76344
229.3631, 14.90703
229.8452, 15.61185
230.3274, 16.31415
230.8095, 17.18651
231.2916, 18.25145
231.7737, 18.85770
232.2558, 18.86786
232.7379, 18.56429
233.2201, 18.25589
233.7022, 18.13058
234.1843, 17.62126
234.6664, 16.46872
235.1485, 14.67030
235.6306, 13.25154
236.1128, 12.45554
236.5949, 11.77065
237.0770, 10.65530
237.5591, 8.725784
238.0412, 7.113525
238.5233, 6.073532
239.0055, 5.603485
239.4876, 5.244095
239.9697, 5.080505
240.4518, 4.934586
240.9339, 4.602173
241.4160, 3.817459
241.8982, 3.387375
242.3803, 3.570053
242.8624, 4.343826
243.3445, 4.868790
243.8266, 5.026474
244.3087, 5.092148
244.7909, 5.289810
245.2730, 5.631104
245.7551, 5.965912
246.2372, 6.220047
246.7193, 6.429321
247.2014, 6.977615
247.6836, 7.953079
248.1657, 9.112701
248.6478, 10.28625
249.1299, 11.45207
249.6120, 12.77858
250.0941, 14.34473
250.5762, 16.04320
251.0584, 17.23656
251.5405, 17.69554
252.0226, 18.02014
252.5047, 18.66058
252.9868, 19.84627
253.4689, 20.87646
253.9511, 21.62794
254.4332, 22.09854
254.9153, 22.39194
255.3974, 22.50888
255.8795, 22.50117
256.3617, 22.40050
256.8438, 22.21590
257.3259, 21.91463
257.8080, 21.45178
258.2901, 20.87508
258.7722, 20.33063
259.2544, 19.74321
259.7365, 19.30975
260.2186, 19.16516
260.7007, 19.42252
261.1828, 19.60902
261.6649, 19.63409
262.1471, 19.58760
262.6292, 19.75618
263.1113, 20.18950
263.5934, 20.72792
264.0755, 21.29074
264.5576, 21.87383
265.0398, 22.51326
265.5219, 23.23610
266.0040, 24.00653
266.4861, 24.72165
266.9682, 25.28712
267.4503, 26.02022
267.9325, 27.13557
268.4146, 28.80641
268.8967, 30.07729
269.3788, 30.77467
269.8609, 31.24605
270.3430, 32.25378
270.8252, 34.06050
271.3073, 35.52650
271.7894, 36.03055
272.2715, 35.45407
272.7536, 35.08852
273.2357, 35.00180
273.7179, 35.08900
274.2000, 35.14503
274.6821, 35.12186
275.1642, 35.19470
275.6463, 35.47186
276.1284, 35.96764
276.6106, 36.38876
277.0927, 36.69200
277.5748, 37.00204
278.0569, 37.41599
278.5390, 37.91046
279.0211, 38.80173
279.5032, 40.24263
279.9854, 42.16144
280.4675, 44.16826
280.9496, 46.27765
281.4317, 48.42247
281.9138, 50.57002
282.3959, 52.72340
282.8781, 54.73332
283.3602, 56.53055
283.8423, 58.16837
284.3244, 59.93190
284.8065, 61.89688
285.2886, 63.57948
285.7708, 64.55550
286.2529, 64.83653
286.7350, 64.63678
287.2171, 63.94662
287.6992, 62.83354
288.1813, 61.60616
288.6635, 60.28265
289.1456, 58.43217
289.6277, 55.48831
290.1098, 51.58784
290.5919, 47.76561
291.0740, 44.16481
291.5562, 40.68652
292.0383, 37.13925
292.5204, 33.50645
293.0025, 30.08211
293.4846, 27.07697
293.9667, 24.41670
294.4489, 21.83382
294.9310, 19.32150
295.4131, 16.89148
295.8952, 14.51314
296.3773, 12.22086
296.8594, 10.16301
297.3416, 8.338028
297.8237, 6.796844
298.3058, 5.782455
298.7879, 5.380173
299.2700, 5.118240
299.7521, 4.479431
300.2343, 3.530869
300.7164, 2.509171
301.1985, 1.297913
301.6806, 0.1455380
302.1627, 0.4600830
302.6448, 0.4828340
303.1270, 0.3701020
303.6091, 0.5352170
304.0912, 0.8707580
304.5733, 1.156662
305.0554, 1.143555
305.5375, 1.122345
306.0197, 1.603195
306.5018, 2.543793
306.9839, 3.209320
307.4660, 2.782532
307.9481, 1.796814
308.4302, 1.000458
308.9124, 0.5971680
309.3945, 0.4876100
309.8766, 0.8448790
310.3587, 1.542480
310.8408, 1.899673
311.3229, 1.250320
311.8051, 0.1667480
312.2872, 0.7714230
312.7693, 1.450668
313.2514, 1.934769
313.7335, 2.060211
314.2156, 1.987396
314.6978, 2.186295
315.1799, 3.182404
315.6620, 4.343811
316.1441, 5.144333
316.6262, 5.323776
317.1083, 5.633636
317.5905, 6.501343
318.0726, 7.695877
318.5547, 8.831635
319.0368, 9.668167
319.5189, 10.48842
320.0010, 11.49203
320.4832, 12.78720
320.9653, 13.81874
321.4474, 14.13976
321.9295, 14.21213
322.4116, 14.57660
322.8937, 15.55016
323.3759, 16.64272
323.8580, 17.82758
324.3401, 19.10704
324.8222, 20.09674
325.3043, 20.30858
325.7864, 20.44460
326.2686, 21.04556
326.7507, 23.23872
327.2328, 24.70999
327.7149, 24.78061
328.1970, 23.60185
328.6791, 22.89343
329.1613, 23.29807
329.6434, 23.69110
330.1255, 23.50778
330.6076, 22.43803
331.0897, 21.22746
331.5718, 19.73668
332.0540, 18.11652
332.5361, 16.78807
333.0182, 15.83096
333.5003, 15.04622
333.9824, 14.40276
334.4645, 14.00041
334.9467, 13.39172
335.4288, 12.39166
335.9109, 11.32144
336.3930, 10.76506
336.8751, 10.92679
337.3572, 11.11598
337.8394, 11.12407
338.3215, 10.94131
338.8036, 10.75406
339.2857, 10.48041
339.7678, 10.34520
340.2499, 10.62938
340.7321, 11.38190
341.2142, 12.27237
341.6963, 13.27716
342.1784, 14.34207
342.6605, 15.16597
343.1426, 15.68367
343.6248, 16.23384
344.1069, 17.10245
344.5890, 18.26230
345.0711, 19.47479
345.5532, 20.73769
346.0353, 21.97038
346.5175, 22.92828
346.9996, 23.62332
347.4817, 24.29523
347.9638, 25.09898
348.4459, 26.00166
348.9280, 26.95717
349.4102, 28.01500
349.8923, 28.89316
350.3744, 29.08066
350.8565, 28.72090
351.3386, 28.37148
351.8207, 28.53658
352.3029, 28.79971
352.7850, 28.33525
353.2671, 27.12167
353.7492, 25.88657
354.2313, 25.28114
354.7134, 25.08652
355.1956, 24.90712
355.6777, 24.50697
356.1598, 24.17339
356.6419, 24.18521
357.1240, 24.51065
357.6061, 24.97548
358.0883, 25.36617
358.5704, 25.89651
359.0525, 26.80525
359.5346, 28.26039
360.0167, 29.80142
360.4988, 31.03993
360.9810, 32.19653
361.4631, 33.71729
361.9452, 36.13098
362.4273, 38.68779
362.9094, 40.89955
363.3915, 42.57390
363.8737, 44.52055
364.3558, 47.13309
364.8379, 50.08276
365.3200, 53.02289
365.8021, 55.74669
366.2842, 58.62486
366.7664, 61.85440
367.2485, 65.44203
367.7306, 68.64140
368.2127, 71.20726
368.6948, 73.44740
369.1769, 75.64096
369.6591, 78.46713
370.1412, 80.43422
370.6233, 81.36783
371.1054, 81.37578
371.5875, 80.86107
372.0696, 79.94443
372.5518, 78.36520
373.0339, 75.90154
373.5160, 72.14903
373.9981, 68.61316
374.4802, 65.21625
374.9623, 62.05447
375.4445, 59.41646
375.9266, 57.51317
376.4087, 55.45044
376.8908, 52.81517
377.3729, 49.63431
377.8550, 47.11752
378.3372, 45.31819
378.8193, 44.09630
379.3014, 43.41606
379.7835, 43.28506
380.2656, 43.42993
380.7477, 43.88510
381.2299, 44.50085
381.7120, 44.82634
382.1941, 44.84885
382.6762, 45.00882
383.1583, 45.75453
383.6404, 46.91386
384.1226, 47.83736
384.6047, 48.49048
385.0868, 48.79404
385.5689, 48.66664
386.0510, 48.10953
386.5331, 47.13776
387.0153, 45.68871
387.4974, 43.85158
387.9795, 41.69737
388.4616, 39.23112
388.9437, 36.59413
389.4258, 33.80730
389.9080, 30.93605
390.3901, 28.12772
390.8722, 25.54463
391.3543, 22.89851
391.8364, 19.77368
392.3185, 16.38350
392.8007, 13.40596
393.2828, 11.41879
393.7649, 9.799866
394.2470, 8.114273
394.7291, 6.181915
395.2112, 4.476776
395.6934, 3.216675
396.1755, 2.272324
396.6576, 1.451355
397.1397, 0.7139430
397.6218, 8.3724998E-02
398.1039, 0.4546660
398.5861, 0.9099120
399.0682, 1.169861
399.5503, 1.099060
400.0324, 0.9005280
400.5145, 0.7278900
400.9966, 0.7191470
401.4788, 0.5352780
401.9609, 6.6986002E-02
402.4430, 0.6035770
402.9251, 1.136017
403.4072, 1.382751
403.8893, 1.717865
404.3714, 2.263458
404.8535, 2.972534
405.3357, 4.163193
405.8178, 6.031815
406.2999, 8.100418
406.7820, 9.634964
407.2641, 10.54659
407.7462, 11.41484
408.2284, 12.32208
408.7105, 13.31656
409.1926, 14.80714
409.6747, 16.87393
410.1568, 19.13995
410.6389, 21.28023
411.1211, 23.30344
411.6032, 25.40494
412.0853, 27.60822
412.5674, 29.90115
413.0495, 32.40715
413.5316, 35.10854
414.0138, 37.76337
414.4959, 40.10551
414.9780, 42.36327
415.4601, 44.88089
415.9422, 47.71837
416.4243, 50.65155
416.9065, 53.41264
417.3886, 56.17987
417.8707, 59.15752
418.3528, 62.75241
418.8349, 66.28082
419.3170, 69.39589
419.7992, 72.15289
420.2813, 74.63725
420.7634, 77.11591
421.2455, 79.21576
421.7276, 80.64424
422.2097, 81.30574
422.6919, 81.58650
423.1740, 81.51526
423.6561, 81.13770
424.1382, 80.51845
424.6203, 80.13864
425.1024, 79.05904
425.5846, 76.80516
426.0667, 73.31505
426.5488, 70.01799
427.0309, 66.84671
427.5130, 63.88982
427.9951, 61.14264
428.4773, 58.32396
428.9594, 56.37125
429.4415, 55.58653
429.9236, 55.59746
430.4057, 55.41887
430.8878, 54.92477
431.3700, 54.63890
431.8521, 54.73232
432.3342, 55.20619
432.8163, 56.23036
433.2984, 57.85260
433.7805, 59.86427
434.2627, 61.92647
434.7448, 64.09099
435.2269, 66.86757
435.7090, 70.43666
436.1911, 74.69861
436.6732, 79.51196
437.1554, 84.86308
437.6375, 90.50693
438.1196, 96.37851
438.6017, 102.4044
439.0838, 108.4623
439.5659, 114.5543
440.0481, 120.6879
440.5302, 127.5498
441.0123, 134.4227
441.4944, 140.1047
441.9765, 145.0202
442.4586, 147.8352
442.9408, 147.5919
443.4229, 144.3984
443.9050, 139.2105
444.3871, 131.8192
444.8692, 123.0205
445.3513, 113.2019
445.8335, 101.5874
446.3156, 90.43881
446.7977, 80.03931
447.2798, 70.43840
447.7619, 61.78731
448.2440, 54.13818
448.7262, 47.47824
449.2083, 42.03511
449.6904, 37.82892
450.1725, 33.82710
450.6546, 29.91756
451.1367, 26.40758
451.6189, 23.60684
452.1010, 21.68245
452.5831, 19.82130
453.0652, 17.80159
453.5473, 15.90961
454.0294, 14.87894
454.5116, 14.80740
454.9937, 14.78368
455.4758, 14.36975
455.9579, 13.63574
456.4400, 12.92365
456.9221, 12.20723
457.4043, 11.70964
457.8864, 11.93663
458.3685, 12.57388
458.8506, 12.67963
459.3327, 11.90198
459.8148, 10.69957
460.2970, 9.488785
460.7791, 8.271027
461.2612, 7.095551
461.7433, 5.894516
462.2254, 4.802902
462.7076, 4.000031
463.1897, 3.513199
463.6718, 3.072296
464.1539, 2.536285
464.6360, 1.981415
465.1181, 1.494141
465.6003, 1.240479
466.0824, 0.9027100
466.5645, 0.2858280
467.0466, 0.5057980
467.5287, 1.071548
468.0108, 1.311707
468.4930, 1.364517
468.9751, 1.204620
469.4572, 0.6747440
469.9393, 0.5539550
470.4214, 1.139969
470.9035, 1.867218
471.3857, 2.081223
471.8678, 1.594940
472.3499, 1.187698
472.8320, 0.9918670
473.3141, 0.9654690
473.7962, 1.023544
474.2784, 1.196640
474.7605, 1.221268
475.2426, 0.7998350
475.7247, 4.5044001E-02
476.2068, 0.3771060
476.6889, 0.4285430
477.1711, 0.2948460
477.6532, 4.3930002E-02
478.1353, 0.4187470
478.6174, 0.3363190
479.0995, 0.6333010
479.5816, 1.782745
480.0638, 2.284134
480.5459, 2.301697
481.0280, 2.408813
481.5101, 3.019073
481.9922, 3.734055
482.4743, 4.149612
482.9565, 4.125931
483.4386, 4.417877
483.9207, 5.617584
484.4028, 7.170120
484.8849, 8.490997
485.3670, 9.258835
485.8492, 9.990860
486.3313, 10.62271
486.8134, 11.22458
487.2955, 12.21239
487.7776, 13.88557
488.2597, 15.55615
488.7419, 16.98906
489.2240, 18.16254
489.7061, 19.12686
490.1882, 19.72227
490.6703, 20.30011
491.1524, 21.45018
491.6346, 23.32449
492.1167, 24.72055
492.5988, 25.25699
493.0809, 25.28296
493.5630, 25.71117
494.0451, 26.54666
494.5273, 27.64314
495.0094, 29.01306
495.4915, 30.55421
495.9736, 32.07120
496.4557, 33.54858
496.9378, 34.99043
497.4200, 36.17455
497.9021, 37.36842
498.3842, 38.96951
498.8663, 41.25485
499.3484, 43.78571
499.8305, 46.23677
500.3127, 48.71919
500.7948, 51.50105
501.2769, 54.96848
501.7590, 58.54939
502.2411, 62.06384
502.7232, 65.57187
503.2054, 68.71056
503.6875, 71.52808
504.1696, 73.86403
504.6517, 75.57716
505.1338, 76.73535
505.6159, 77.16119
506.0981, 76.90498
506.5802, 75.87332
507.0623, 73.75963
507.5444, 70.31239
508.0265, 66.46259
508.5086, 62.38062
508.9908, 58.12262
509.4729, 54.10216
509.9550, 50.31955
510.4371, 46.87122
510.9192, 43.85718
511.4013, 41.27351
511.8835, 39.21500
512.3655, 37.75092
512.8477, 36.58250
513.3298, 35.27342
513.8119, 33.98643
514.2940, 33.10646
514.7761, 32.96062
515.2582, 33.17540
515.7404, 33.59209
516.2225, 34.16988
516.7046, 34.65103
517.1867, 34.94839
517.6688, 35.09140
518.1509, 35.04459
518.6331, 34.61992
519.1152, 34.45351
519.5973, 35.30605
520.0794, 36.20764
520.5615, 35.93730
521.0436, 33.83720
521.5258, 31.57057
522.0079, 29.36290
522.4900, 27.18300
522.9721, 24.81926
523.4542, 22.21524
523.9363, 19.72499
524.4185, 17.49059
524.9006, 15.47008
525.3827, 13.82219
525.8648, 12.62183
526.3469, 11.52145
526.8290, 9.949829
527.3112, 8.143677
527.7933, 6.923920
528.2754, 6.619827
528.7575, 6.596542
529.2396, 6.220444
529.7217, 5.590012
530.2039, 4.866211
530.6860, 3.974258
531.1681, 3.101257
531.6502, 2.316940
532.1323, 1.619583
532.6144, 1.150558
533.0966, 1.202866
533.5787, 1.405258
534.0608, 1.456375
534.5429, 1.184677
535.0250, 0.8985900
535.5071, 0.5308530
535.9893, 0.1749570
536.4714, 3.8513001E-02
536.9535, 0.3678740
537.4356, 0.5428770
537.9177, 0.3364110
538.3998, 0.1664890
538.8820, 0.4032900
539.3641, 0.3213650
539.8462, 0.2038120
540.3283, 0.2160340
540.8104, 0.3453370
541.2925, 0.5227660
541.7747, 0.7534330
542.2568, 0.9761350
542.7389, 1.190598
543.2210, 1.344788
543.7031, 1.308823
544.1852, 1.012115
544.6674, 0.5683590
545.1495, 0.1300350
545.6316, 0.9067080
546.1137, 1.318985
546.5958, 0.7617030
547.0779, 0.1333160
547.5601, 2.3102000E-02
548.0422, 0.3354190
548.5243, 0.5412750
549.0064, 0.2360690
549.4885, 0.1115110
549.9706, 0.1976320
550.4528, 0.2136080
550.9349, 0.4263610
551.4170, 0.3100740
551.8991, 9.9013999E-02
552.3812, 0.1790470
552.8633, 0.6478120
553.3455, 0.9929350
553.8276, 1.039246
554.3097, 0.9060060
554.7918, 1.057190
555.2739, 1.490143
555.7560, 1.777985
556.2382, 1.409943
556.7203, 0.7582090
557.2024, 0.7601620
557.6845, 1.476349
558.1666, 2.201859
558.6487, 2.225281
559.1309, 1.956039
559.6130, 1.931305
560.0951, 2.402512
560.5772, 2.903564
561.0593, 3.045273
561.5414, 3.092331
562.0236, 3.507751
562.5057, 4.992325
562.9878, 6.246490
563.4699, 6.753922
563.9520, 6.600311
564.4341, 6.762115
564.9163, 7.323868
565.3984, 8.082947
565.8805, 9.000412
566.3626, 10.13776
566.8447, 11.05234
567.3268, 11.68703
567.8090, 12.29024
568.2911, 13.18449
568.7732, 14.33705
569.2553, 15.34425
569.7374, 16.06090
570.2195, 16.75548
570.7017, 17.78342
571.1838, 19.12642
571.6659, 20.69707
572.1480, 22.54910
572.6301, 24.56221
573.1122, 26.64778
573.5944, 28.82083
574.0765, 31.07286
574.5586, 33.07530
575.0407, 35.38791
575.5228, 38.40334
576.0049, 42.30006
576.4871, 46.46649
576.9692, 50.61748
577.4513, 55.18077
577.9334, 60.68097
578.4155, 67.21329
578.8976, 74.23515
579.3798, 81.56326
579.8619, 89.44296
580.3440, 98.29201
580.8261, 108.0828
581.3082, 118.6848
581.7903, 129.9425
582.2725, 141.9708
582.7546, 155.0757
583.2367, 169.1941
583.7188, 183.6349
584.2009, 197.5170
584.6830, 211.3981
585.1652, 225.9977
585.6473, 241.4899
586.1294, 257.5361
586.6115, 273.2177
587.0936, 289.8453
587.5757, 308.6076
588.0579, 330.1791
588.5400, 353.4742
589.0221, 378.6591
589.5042, 405.4504
589.9863, 433.0081
590.4684, 459.8181
590.9506, 489.3587
591.4327, 522.7523
591.9148, 559.7220
592.3969, 598.1241
592.8790, 638.1301
593.3611, 678.8070
593.8433, 720.6464
594.3254, 762.5388
594.8075, 803.3421
595.2896, 843.3077
595.7717, 879.0433
596.2538, 910.7025
596.7360, 935.1453
597.2181, 946.9133
597.7002, 944.6035
598.1823, 928.8916
598.6644, 897.8453
599.1465, 854.0150
599.6287, 801.5535
600.1108, 735.4961
600.5929, 668.2241
601.0750, 601.4233
601.5571, 536.0899
602.0392, 476.0526
602.5214, 420.6725
603.0035, 370.7039
603.4856, 327.0750
603.9677, 289.5355
604.4498, 256.7929
604.9319, 228.9630
605.4141, 204.6793
605.8962, 183.7307
606.3783, 165.6734
606.8604, 149.6549
607.3425, 135.5322
607.8246, 123.0228
608.3068, 112.3553
608.7889, 103.0792
609.2710, 94.48315
609.7531, 86.10469
610.2352, 78.57669
610.7173, 72.50148
611.1995, 67.57253
611.6816, 62.90894
612.1637, 58.08612
612.6458, 53.56958
613.1279, 49.54478
613.6100, 46.08443
614.0922, 42.63130
614.5743, 38.84940
615.0564, 35.47076
615.5385, 32.98828
616.0206, 31.54994
616.5027, 30.04118
616.9849, 28.47137
617.4670, 26.81224
617.9491, 24.97960
618.4312, 23.02957
618.9133, 21.31424
619.3954, 19.92268
619.8776, 18.69000
620.3597, 17.37593
620.8418, 16.05888
621.3239, 14.93863
621.8060, 14.43591
622.2881, 13.81190
622.7703, 12.33054
623.2524, 10.27917
623.7345, 8.844086
624.2166, 8.814346
624.6987, 9.004364
625.1808, 9.016937
625.6630, 8.849823
626.1451, 8.456940
626.6272, 7.733276
627.1093, 6.942352
627.5914, 6.277191
628.0735, 5.750687
628.5557, 5.111511
629.0378, 4.309662
629.5199, 3.559250
630.0020, 3.132736
630.4841, 2.965088
630.9662, 2.875336
631.4484, 2.881470
631.9305, 2.821213
632.4126, 2.442841
632.8947, 1.894150
633.3768, 1.460999
633.8589, 1.383484
634.3411, 1.333984
634.8232, 1.185486
635.3053, 0.9496460
635.7874, 0.7062530
636.2695, 0.4546360
636.7516, 0.2046810
637.2338, 6.8222001E-02
637.7159, 0.3770600
638.1980, 0.5042420
638.6801, 0.4141080
639.1622, 0.2625430
639.6443, 0.1146240
640.1265, 7.3389998E-03
640.6086, 0.1277470
641.0907, 0.5860600
641.5728, 1.012299
642.0549, 0.9633790
642.5370, 0.6287380
643.0192, 0.3643490
643.5013, 0.3142700
643.9834, 0.2526860
644.4655, 8.5602000E-02
644.9476, 0.5122530
645.4297, 0.7178190
645.9119, 0.1846160
646.3940, 0.1012570
646.8761, 1.8402001E-02
647.3582, 0.4852450
647.8403, 1.875168
648.3224, 5.222046
648.8046, 7.304886
649.2867, 6.419037
649.7688, 2.998047
650.2509, 1.317886
650.7330, 1.472183
651.2151, 2.214996
651.6973, 2.836487
652.1794, 3.322266
652.6615, 3.511932
653.1436, 3.374695
653.6257, 3.381287
654.1078, 3.919006
654.5900, 4.787918
655.0721, 5.792877
655.5542, 6.922592
656.0363, 8.107819
656.5184, 9.513245
657.0005, 10.87895
657.4827, 11.84482
657.9648, 11.94890
658.4469, 12.40297
658.9290, 13.38062
659.4111, 14.77228
659.8932, 16.31476
660.3754, 17.99818
660.8575, 19.92165
661.3396, 22.22000
661.8217, 24.71724
662.3038, 26.79726
662.7859, 28.56737
663.2681, 30.77478
663.7502, 34.14514
664.2323, 38.00568
664.7144, 41.67825
665.1965, 45.14455
665.6786, 48.95285
666.1608, 53.49820
666.6429, 58.34196
667.1250, 63.23119
667.6071, 68.17804
668.0892, 73.08340
668.5714, 77.70309
669.0535, 82.61125
669.5356, 88.29932
670.0177, 94.87260
670.4998, 101.6843
670.9819, 108.6602
671.4641, 115.8916
671.9462, 123.5689
672.4283, 131.5516
672.9104, 139.7443
673.3925, 147.7666
673.8746, 156.6043
674.3568, 167.4915
674.8389, 179.8676
675.3210, 192.4826
675.8031, 204.8993
676.2852, 217.1744
676.7673, 229.4713
677.2495, 241.7691
677.7316, 253.6887
678.2137, 266.3149
678.6958, 277.2783
679.1779, 286.0829
679.6600, 292.7281
680.1422, 295.4769
680.6243, 294.3083
681.1064, 289.6482
681.5885, 281.4310
682.0706, 269.9088
682.5527, 255.6266
683.0349, 238.3877
683.5170, 220.2838
683.9991, 201.4011
684.4812, 182.9430
684.9633, 165.8608
685.4454, 150.4732
685.9276, 136.6548
686.4097, 124.4240
686.8918, 113.5966
687.3739, 103.9247
687.8560, 95.16150
688.3381, 87.88951
688.8203, 82.23744
689.3024, 77.92404
689.7845, 74.61459
690.2666, 72.32918
690.7487, 70.40663
691.2308, 68.68971
691.7130, 67.20755
692.1951, 65.89351
692.6772, 64.79504
693.1593, 64.08334
693.6414, 63.83823
694.1235, 64.04106
694.6057, 64.76572
695.0878, 65.95203
695.5699, 67.37793
696.0520, 69.18384
696.5341, 70.99304
697.0162, 72.60869
697.4984, 74.05162
697.9805, 75.87189
698.4626, 78.19548
698.9447, 80.64828
699.4268, 83.17236
699.9089, 85.75685
700.3911, 87.68788
700.8732, 88.96547
701.3553, 89.56111
701.8374, 89.58914
702.3195, 88.87529
702.8016, 87.10239
703.2838, 84.19769
703.7659, 80.42599
704.2480, 75.44296
704.7301, 69.93729
705.2122, 64.54443
705.6943, 59.28004
706.1765, 54.30000
706.6586, 49.57988
707.1407, 45.11673
707.6228, 40.83273
708.1049, 36.70801
708.5870, 32.81242
709.0692, 29.15587
709.5513, 25.80894
710.0334, 22.96826
710.5155, 20.58281
710.9976, 18.44034
711.4797, 16.41318
711.9618, 14.66846
712.4439, 13.50177
712.9260, 12.76868
713.4081, 12.08971
713.8903, 11.50276
714.3724, 10.75211
714.8545, 9.550568
715.3366, 8.014740
715.8187, 6.900574
716.3008, 6.327225
716.7830, 5.982254
717.2651, 5.885651
717.7472, 5.957108
718.2293, 5.411942
718.7114, 4.206253
719.1935, 3.127655
719.6757, 2.794785
720.1578, 2.891968
720.6399, 2.856323
721.1220, 2.669724
721.6041, 2.377380
722.0862, 1.932281
722.5684, 1.452820
723.0505, 0.9528050
723.5326, 0.3619380
724.0147, 0.1497800
724.4968, 0.7657470
724.9789, 1.449539
725.4611, 1.737411
725.9432, 1.550308
726.4253, 1.230026
726.9074, 0.7308040
727.3895, 0.2341920
727.8716, 5.1224001E-02
728.3538, 0.1645660
728.8359, 0.2680820
729.3180, 0.4021450
729.8001, 0.4532170
730.2822, 0.1883540
730.7643, 0.1770780
731.2465, 0.3471830
731.7286, 0.1434480
732.2107, 0.1159970
732.6928, 0.4967650
733.1749, 0.8306270
733.6570, 0.8482820
734.1392, 0.3690800
734.6213, 2.9633000E-02
735.1034, 0.3014530
735.5855, 0.4141240
736.0676, 0.1944580
736.5497, 0.3274230
737.0319, 0.6602780
737.5140, 0.5645900
737.9961, 0.2990110
738.4782, 0.1654970
738.9603, 0.1326290
739.4424, 0.1208650
739.9246, 3.1860001E-02
740.4067, 1.4206000E-02
740.8888, 0.2690730
741.3709, 0.6870270
741.8530, 0.7496490
742.3351, 6.4361997E-02
742.8173, 0.3894960
743.2994, 0.2265170
743.7815, 0.3935550
744.2636, 0.5593720
744.7457, 0.2420810
745.2278, 0.1202550
745.7100, 0.2819060
746.1921, 0.3164830
746.6742, 0.3716580
747.1563, 0.4347380
747.6384, 0.4212340
748.1205, 0.1502690
748.6027, 0.1114040
749.0848, 0.1899410
749.5669, 7.0389003E-02
750.0490, 0.1621860
750.5311, 0.6766200
751.0132, 1.104340
751.4954, 1.286758
751.9775, 1.215820
752.4596, 0.8981020
752.9417, 0.2468570
753.4238, 0.2347560
753.9059, 2.7832000E-02
754.3881, 0.7339320
754.8702, 1.068680
755.3523, 0.9629060
755.8344, 0.8334660
756.3165, 0.8881070
756.7986, 1.121216
757.2808, 1.612320
757.7629, 2.539078
758.2450, 3.107773
758.7271, 3.009277
759.2092, 2.665161
759.6913, 2.313400
760.1735, 1.916595
760.6556, 1.652847
761.1377, 1.500732
761.6198, 1.557907
762.1019, 2.030716
762.5840, 2.806686
763.0662, 3.526764
763.5483, 4.152298
764.0304, 4.746429
764.5125, 5.241379
764.9946, 5.667831
765.4767, 6.099380
765.9589, 6.399628
766.4410, 6.985901
766.9231, 8.080338
767.4052, 9.398575
767.8873, 10.74432
768.3694, 12.21999
768.8516, 13.14682
769.3337, 13.25589
769.8158, 13.24747
770.2979, 14.27855
770.7800, 16.09338
771.2621, 17.77890
771.7443, 19.09724
772.2264, 20.21507
772.7085, 20.95206
773.1906, 21.68050
773.6727, 22.92732
774.1548, 25.33595
774.6370, 27.68571
775.1191, 29.62042
775.6012, 31.46872
776.0833, 33.71239
776.5654, 36.41270
777.0475, 39.33380
777.5297, 42.45953
778.0118, 45.77550
778.4939, 49.25803
778.9760, 52.90810
779.4581, 56.76772
779.9402, 61.01759
780.4224, 65.17493
780.9045, 68.98131
781.3866, 72.35384
781.8687, 75.10464
782.3508, 77.61600
782.8329, 78.92236
783.3151, 78.94879
783.7972, 77.69229
784.2793, 74.97372
784.7614, 70.66977
785.2435, 65.65599
785.7256, 59.93622
786.2078, 53.92451
786.6899, 48.41281
787.1720, 43.32236
787.6541, 38.68565
788.1362, 34.27672
788.6183, 30.45534
789.1005, 27.63037
789.5826, 25.57172
790.0647, 23.78380
790.5468, 22.29440
791.0289, 20.86589
791.5110, 19.47710
791.9932, 18.17911
792.4753, 17.08943
792.9574, 16.19591
793.4395, 15.40045
793.9216, 14.63588
794.4037, 13.92381
794.8859, 13.45128
795.3680, 13.15720
795.8501, 12.78854
796.3322, 12.06078
796.8143, 11.34598
797.2964, 10.93738
797.7786, 10.72789
798.2607, 10.31525
798.7428, 9.501968
799.2249, 8.685104
799.7070, 8.042038
800.1891, 7.512665
800.6713, 6.544403
801.1534, 5.104050
801.6355, 4.022324
802.1176, 3.932648
802.5997, 4.228165
803.0818, 3.911636
803.5640, 3.163315
804.0461, 2.567902
804.5282, 2.495346
805.0103, 2.537552
805.4924, 2.620407
805.9745, 2.673615
806.4567, 2.462463
806.9388, 1.848282
807.4209, 1.308929
807.9030, 0.9554140
808.3851, 0.7889400
808.8672, 0.8569950
809.3494, 1.129959
809.8315, 1.376495
810.3136, 1.538513
810.7957, 1.553665
811.2778, 1.239014
811.7599, 0.7613530
812.2421, 0.4742740
812.7242, 0.6091460
813.2063, 0.7840420
813.6884, 0.8994750
814.1705, 0.9687810
814.6526, 1.037338
815.1348, 1.120636
815.6169, 1.141113
816.0990, 1.059982
816.5811, 0.9200900
817.0632, 0.8004150
817.5453, 0.7032010
818.0275, 0.6338650
818.5096, 0.6110230
818.9917, 0.6046910
819.4738, 0.7002110
819.9559, 0.7992550
820.4380, 0.6400450
820.9202, 0.3734130
821.4023, 0.9391630
821.8844, 0.7027440
822.3665, 5.7312001E-02
822.8486, 0.7160490
823.3307, 1.274384
823.8129, 1.503021
824.2950, 1.208832
824.7771, 0.7156070
825.2592, 0.4368440
825.7413, 0.3390050
826.2234, 0.3308260
826.7056, 0.4695280
827.1877, 0.5863490
827.6698, 0.6181790
828.1519, 0.5799100
828.6340, 0.5172580
829.1161, 0.4409640
829.5983, 0.2891690
830.0804, 2.4033001E-02
830.5625, 0.3112490
831.0446, 5.9661999E-02
831.5267, 0.5988770
832.0089, 0.9687190
832.4910, 0.7012330
832.9731, 0.2932740
833.4552, 0.1389160
833.9373, 0.1602480
834.4194, 0.2305300
834.9016, 0.4400180
835.3837, 0.5269620
835.8658, 0.3834080
836.3479, 0.1596370
836.8300, 9.7488001E-02
837.3121, 0.2174380
837.7943, 0.3100890
838.2764, 0.3296050
838.7585, 0.3353880
839.2406, 0.3414150
839.7227, 0.4102940
840.2048, 0.7253270
840.6870, 1.577972
841.1691, 2.144379
841.6512, 1.665817
842.1333, 0.8681180
842.6154, 0.6681370
843.0975, 1.575760
843.5797, 1.978165
844.0618, 1.658188
844.5439, 1.107422
845.0260, 0.9033510
845.5081, 0.9950560
845.9902, 1.193710
846.4724, 1.509369
846.9545, 1.682205
847.4366, 1.259033
847.9187, 0.6912380
848.4008, 0.5352020
848.8829, 1.160629
849.3651, 1.437012
849.8472, 0.9691620
850.3293, 0.3734280
850.8114, 0.1327360
851.2935, 0.2999570
851.7756, 0.2915340
852.2578, 6.2424000E-02
852.7399, 0.1208800
853.2220, 3.3493001E-02
853.7041, 0.3688200
854.1862, 0.6648860
854.6683, 0.8943790
855.1505, 1.046417
855.6326, 1.078613
856.1147, 1.057449
856.5968, 1.021423
857.0789, 0.9770660
857.5610, 0.8995670
858.0432, 0.7344060
858.5253, 0.6397860
859.0074, 0.8354950
859.4895, 1.188843
859.9716, 1.095230
860.4537, 0.6102450
860.9359, 0.3572540
861.4180, 0.9943700
861.9001, 1.786652
862.3822, 2.270569
862.8643, 2.422165
863.3464, 2.401215
863.8286, 2.120224
864.3107, 1.880005
864.7928, 1.795685
865.2749, 1.815079
865.7570, 1.767395
866.2391, 1.657928
866.7213, 1.523560
867.2034, 1.288422
867.6855, 1.112488
868.1676, 1.242966
868.6497, 1.570969
869.1318, 1.788681
869.6140, 1.764008
870.0961, 1.651291
870.5782, 1.389435
871.0603, 1.091431
871.5424, 1.097809
872.0245, 1.434113
872.5067, 1.877258
872.9888, 2.487259
873.4709, 2.950760
873.9530, 2.545929
874.4351, 1.655029
874.9172, 1.130783
875.3994, 1.500824
875.8815, 1.856583
876.3636, 1.867859
876.8457, 1.688507
877.3278, 1.496964
877.8099, 1.205139
878.2921, 1.122177
878.7742, 1.301178
879.2563, 1.553757
879.7384, 1.769135
880.2205, 1.953949
880.7026, 1.992874
881.1848, 1.848602
881.6669, 1.659683
882.1490, 1.358276
882.6311, 1.175797
883.1132, 1.339691
883.5953, 2.036652
884.0775, 2.412003
884.5596, 2.376755
885.0417, 2.213257
885.5238, 2.157227
886.0059, 2.169525
886.4880, 1.977005
886.9702, 1.593399
887.4523, 1.229416
887.9344, 0.9100950
888.4165, 0.7080080
888.8986, 0.7948610
889.3807, 1.168152
889.8629, 1.422058
890.3450, 1.474121
890.8271, 1.436859
891.3092, 1.327057
891.7913, 1.178711
892.2734, 1.081223
892.7556, 1.025635
893.2377, 1.052826
893.7198, 1.330109
894.2019, 1.598434
894.6840, 1.512115
895.1661, 1.193176
895.6483, 0.9744870
896.1304, 1.055420
896.6125, 1.112671
897.0946, 1.026962
897.5767, 0.9205020
898.0588, 0.9702000
898.5410, 1.160141
899.0231, 1.269104
899.5052, 1.243546
899.9873, 1.191040
900.4694, 1.236359
900.9515, 1.388229
901.4337, 1.570541
901.9158, 1.734085
902.3979, 1.951584
902.8800, 2.459213
903.3621, 2.872116
903.8442, 2.789047
904.3264, 2.084045
904.8085, 1.646240
905.2906, 1.540207
905.7727, 1.517670
906.2548, 1.276443
906.7369, 0.9850310
907.2191, 0.9886630
907.7012, 1.331192
908.1833, 1.520782
908.6654, 1.191788
909.1475, 0.7795720
909.6296, 0.5003970
910.1118, 0.3533940
910.5939, 0.2983250
911.0760, 0.3509520
911.5581, 0.4560090
912.0402, 0.6107480
912.5223, 0.7822720
913.0045, 0.9424440
913.4866, 1.068008
913.9687, 1.062698
914.4508, 0.5080260
914.9329, 0.2097320
915.4150, 0.7558140
915.8972, 1.779938
916.3793, 2.388062
916.8614, 2.533966
917.3435, 2.387634
917.8256, 1.887512
918.3077, 1.303711
918.7899, 1.080688
919.2720, 1.124619
919.7541, 1.235504
920.2362, 1.449265
920.7183, 1.490677
921.2004, 0.9331050
921.6826, 0.3223880
922.1647, 0.2535400
922.6468, 1.038361
923.1289, 1.407455
923.6110, 1.280930
924.0931, 0.9840850
924.5753, 0.7609250
925.0574, 0.6173100
925.5395, 0.6332240
926.0216, 0.8086700
926.5037, 0.8662110
926.9858, 0.4860080
927.4680, 8.8303000E-02
927.9501, 5.6412000E-02
928.4322, 3.6743000E-02
928.9143, 0.1251220
929.3964, 0.1705630
929.8785, 0.3871000
930.3607, 1.058273
930.8428, 1.809723
931.3249, 1.603790
931.8070, 0.7163540
932.2891, 5.2094001E-02
932.7712, 0.2885130
933.2534, 0.5344090
933.7355, 0.3412020
934.2176, 6.9061004E-02
934.6997, 0.2543180
935.1818, 0.1562190
935.6639, 1.6602000E-02
936.1461, 0.1606600
936.6282, 0.3083340
937.1103, 0.2410280
937.5924, 9.5702998E-02
938.0745, 0.2565920
938.5566, 0.9086000
939.0388, 1.281235
939.5209, 0.6304630
940.0030, 0.1690980
940.4851, 0.4449770
940.9672, 0.1159820
941.4493, 0.1009980
941.9315, 0.1912540
942.4136, 0.2137300
942.8957, 0.2285610
943.3778, 0.1924440
943.8599, 0.1154020
944.3420, 0.6003570
944.8242, 0.7828980
945.3063, 0.1105040
945.7884, 0.5711210
946.2705, 0.9170990
946.7526, 1.015747
947.2347, 1.109924
947.7169, 1.232056
948.1990, 1.121964
948.6811, 0.6392060
949.1632, 7.0983998E-02
949.6453, 0.1310120
950.1274, 0.1262360
950.6096, 0.2130130
951.0917, 0.5213780
951.5738, 0.8232880
952.0559, 1.332214
952.5380, 1.592407
953.0201, 1.057678
953.5023, 0.4859620
953.9844, 1.010483
954.4665, 0.3908230
954.9486, 0.3566590
955.4307, 0.4120030
955.9128, 9.1049001E-02
956.3950, 0.3581540
956.8771, 0.8749240
957.3591, 1.046524
957.8412, 0.2582700
958.3234, 0.3360440
958.8055, 0.3073270
959.2876, 0.1653590
959.7697, 0.3881380
960.2518, 0.3690490
960.7339, 0.4038240
961.2161, 0.5871580
961.6982, 0.8887940
962.1803, 1.403336
962.6624, 1.973618
963.1445, 2.362793
963.6266, 2.201645
964.1088, 2.336548
964.5909, 2.968964
965.0730, 3.692673
965.5551, 3.986237
966.0372, 3.925278
966.5193, 4.346603
967.0015, 5.308823
967.4836, 6.167526
967.9657, 6.127457
968.4478, 5.985840
968.9299, 6.402481
969.4120, 7.431961
969.8942, 8.615417
970.3763, 10.09898
970.8584, 11.37465
971.3405, 12.22960
971.8226, 12.79358
972.3047, 13.39139
972.7869, 14.02271
973.2690, 14.71275
973.7511, 15.53682
974.2332, 16.30270
974.7153, 17.04430
975.1974, 17.60788
975.6796, 17.78127
976.1617, 17.45454
976.6438, 17.03780
977.1259, 16.54233
977.6080, 16.00201
978.0901, 15.48740
978.5723, 14.95090
979.0544, 14.24445
979.5365, 13.35545
980.0186, 12.51622
980.5007, 11.87022
980.9828, 11.29845
981.4650, 10.76176
981.9471, 10.24770
982.4292, 9.645920
982.9113, 8.940323
983.3934, 8.323776
983.8755, 7.836227
984.3577, 7.532318
984.8398, 7.632431
985.3219, 7.925766
985.8040, 8.021927
986.2861, 7.475754
986.7682, 7.230087
987.2504, 7.473694
987.7325, 7.954193
988.2146, 8.493622
988.6967, 9.074188
989.1788, 9.301575
989.6609, 9.133728
990.1431, 9.089554
990.6252, 9.787720
991.1073, 10.68198
991.5894, 11.20915
992.0715, 11.35045
992.5536, 11.88548
993.0358, 12.94675
993.5179, 14.25737
994.0000, 15.82030
994.4821, 17.45398
994.9642, 18.58047
995.4464, 19.38017
995.9285, 20.49902
996.4106, 22.25809
996.8927, 24.14919
997.3748, 25.99940
997.8569, 27.77075
998.3391, 29.45276
998.8212, 31.01700
999.3033, 32.73471
999.7854, 34.62181
1000.268, 36.47475
1000.750, 38.27515
1001.232, 39.81697
1001.714, 40.78331
1002.196, 41.15587
1002.678, 41.02989
1003.160, 40.31821
1003.642, 39.27650
1004.124, 37.98932
1004.607, 36.43646
1005.089, 34.41521
1005.571, 31.94417
1006.053, 29.76894
1006.535, 28.06372
1007.017, 26.71277
1007.499, 25.64746
1007.981, 24.82695
1008.464, 24.18605
1008.946, 23.79160
1009.428, 23.32118
1009.910, 22.64906
1010.392, 22.12137
1010.874, 21.96977
1011.356, 22.24965
1011.838, 23.02785
1012.320, 24.23123
1012.803, 25.43874
1013.285, 26.26312
1013.767, 27.31299
1014.249, 28.90820
1014.731, 30.91049
1015.213, 33.02565
1015.695, 35.24869
1016.177, 37.65433
1016.659, 40.36475
1017.142, 43.00331
1017.624, 45.29730
1018.106, 47.02826
1018.588, 47.95596
1019.070, 48.04594
1019.552, 47.23044
1020.034, 45.05119
1020.516, 42.55188
1020.999, 40.16533
1021.481, 37.83934
1021.963, 35.22522
1022.445, 32.39561
1022.927, 29.93587
1023.409, 28.25288
1023.891, 26.89848
1024.373, 25.63818
1024.855, 24.49350
1025.338, 23.47594
1025.820, 22.48630
1026.302, 21.90613
1026.784, 21.78119
1027.266, 21.99219
1027.748, 22.56393
1028.230, 23.32808
1028.712, 23.88826
1029.195, 24.23825
1029.677, 24.91895
1030.159, 26.61952
1030.641, 28.15628
1031.123, 29.03745
1031.605, 29.47266
1032.087, 30.14467
1032.569, 31.04161
1033.052, 32.09468
1033.534, 33.35197
1034.016, 34.55312
1034.498, 35.74397
1034.980, 36.61610
1035.462, 36.73459
1035.944, 35.76691
1036.426, 34.89136
1036.908, 34.32401
1037.391, 33.26506
1037.873, 30.89200
1038.355, 27.67790
1038.837, 24.81387
1039.319, 22.23981
1039.801, 19.75693
1040.283, 17.11127
1040.765, 14.74236
1041.247, 12.81155
1041.730, 11.19945
1042.212, 9.635452
1042.694, 8.119247
1043.176, 7.246002
1043.658, 7.185455
1044.140, 7.028976
1044.622, 5.638458
1045.104, 3.941483
1045.587, 2.851639
1046.069, 2.497696
1046.551, 2.176590
1047.033, 1.878372
1047.515, 1.551743
1047.997, 1.160507
1048.479, 0.7494510
1048.961, 0.3666080
1049.443, 4.7088999E-02
1049.926, 0.1146090
1050.408, 1.5778000E-02
1050.890, 0.1325680
1051.372, 0.1949620
1051.854, 0.1466370
1052.336, 0.1044310
1052.818, 0.5773160
1053.300, 0.8762360
1053.782, 0.9964140
1054.265, 1.108444
1054.747, 1.491486
1055.229, 1.782150
1055.711, 1.558472
1056.193, 0.9691930
1056.675, 0.6019740
1057.157, 0.5967860
1057.639, 0.5219270
1058.122, 0.2589110
1058.604, 3.8208000E-02
1059.086, 0.3205720
1059.568, 0.8394010
1060.050, 1.067474
1060.532, 0.9117890
1061.014, 0.6081850
1061.496, 0.1061400
1061.979, 0.3671110
1062.461, 0.6630250
1062.943, 0.8573000
1063.425, 1.449097
1063.907, 2.378174
1064.389, 2.985306
1064.871, 2.853439
1065.353, 2.634644
1065.835, 2.709610
1066.318, 3.046783
1066.800, 3.658218
1067.282, 4.706497
1067.764, 5.373749
1068.246, 5.550598
1068.728, 5.828690
1069.210, 6.955643
1069.692, 8.303452
1070.174, 8.583130
1070.657, 8.127029
1071.139, 8.305374
1071.621, 10.23801
1072.103, 11.93948
1072.585, 13.01108
1073.067, 13.82076
1073.549, 15.00153
1074.031, 16.42781
1074.514, 17.61185
1074.996, 18.46629
1075.478, 19.30458
1075.960, 20.23834
1076.442, 21.28917
1076.924, 22.42126
1077.406, 23.67342
1077.888, 25.31227
1078.370, 27.36703
1078.853, 29.26257
1079.335, 30.77037
1079.817, 32.07726
1080.299, 33.34338
1080.781, 34.57854
1081.263, 35.75922
1081.745, 36.79248
1082.227, 38.07809
1082.709, 39.61874
1083.192, 41.40030
1083.674, 43.57071
1084.156, 45.93469
1084.638, 48.12683
1085.120, 50.09613
1085.602, 51.72774
1086.084, 52.35088
1086.566, 53.46393
1087.048, 55.32909
1087.531, 57.89157
1088.013, 61.29317
1088.495, 65.46916
1088.977, 69.35817
1089.459, 72.90347
1089.941, 76.84409
1090.423, 81.72885
1090.905, 87.16075
1091.388, 92.80235
1091.870, 98.80353
1092.352, 105.5945
1092.834, 113.2030
1093.316, 121.5216
1093.798, 130.4291
1094.280, 140.3839
1094.762, 151.9098
1095.245, 164.8097
1095.727, 178.9750
1096.209, 194.3633
1096.691, 210.5895
1097.173, 227.3154
1097.655, 245.0869
1098.137, 264.3236
1098.619, 284.5575
1099.101, 304.8251
1099.583, 325.0310
1100.066, 345.8601
1100.548, 367.3097
1101.030, 389.8355
1101.512, 413.1506
1101.994, 437.7435
1102.476, 463.7950
1102.958, 491.1947
1103.440, 521.4055
1103.923, 554.3673
1104.405, 590.2576
1104.887, 630.0651
1105.369, 672.2960
1105.851, 717.8434
1106.333, 765.2821
1106.815, 811.8452
1107.297, 857.9080
1107.780, 901.5548
1108.262, 943.6955
1108.744, 977.0190
1109.226, 999.0505
1109.708, 1006.344
1110.190, 994.8041
1110.672, 964.2380
1111.154, 919.5837
1111.636, 858.8195
1112.119, 792.5483
1112.601, 720.8930
1113.083, 648.9776
1113.565, 581.1219
1114.047, 518.1818
1114.529, 462.2276
1115.011, 412.8517
1115.493, 369.9178
1115.975, 334.3830
1116.458, 303.4515
1116.940, 275.8622
1117.422, 251.8388
1117.904, 232.3102
1118.386, 216.8477
1118.868, 202.9779
1119.350, 190.0809
1119.832, 178.4918
1120.315, 168.6844
1120.797, 160.0267
1121.279, 152.2489
1121.761, 145.3359
1122.243, 137.9050
1122.725, 130.0118
1123.207, 122.5418
1123.689, 116.5172
1124.172, 110.5778
1124.654, 103.6552
1125.136, 96.27881
1125.618, 89.43108
1126.100, 83.08351
1126.582, 77.33275
1127.064, 72.21896
1127.546, 67.40800
1128.028, 62.63214
1128.510, 57.99773
1128.993, 53.55084
1129.475, 49.41170
1129.957, 45.67487
1130.439, 42.41415
1130.921, 39.24487
1131.403, 36.06180
1131.885, 33.09036
1132.367, 30.72043
1132.850, 28.72926
1133.332, 26.66553
1133.814, 24.47363
1134.296, 22.51511
1134.778, 20.82118
1135.260, 19.51431
1135.742, 18.72536
1136.224, 18.19287
1136.707, 17.26414
1137.189, 16.11494
1137.671, 15.25514
1138.153, 14.90546
1138.635, 14.37779
1139.117, 13.30104
1139.599, 12.10107
1140.081, 10.84438
1140.563, 9.661774
1141.046, 9.301163
1141.528, 9.579437
1142.010, 9.517303
1142.492, 8.481125
1142.974, 7.453308
1143.456, 7.045288
1143.938, 6.826096
1144.420, 6.412369
1144.902, 5.785095
1145.385, 5.181702
1145.867, 4.613617
1146.349, 4.140564
1146.831, 3.821152
1147.313, 3.602356
1147.795, 3.464218
1148.277, 3.353073
1148.759, 3.264130
1149.242, 3.210587
1149.724, 3.142258
1150.206, 3.064987
1150.688, 2.991974
1151.170, 2.958908
1151.652, 2.841660
1152.134, 2.518936
1152.616, 2.027374
1153.099, 1.469666
1153.581, 0.7666780
1154.063, 0.3297420
1154.545, 0.2261510
1155.027, 0.3229220
1155.509, 0.7035520
1155.991, 1.075287
1156.473, 0.8944700
1156.955, 0.1923830
1157.438, 8.6104997E-02
1157.920, 0.9862670
1158.402, 1.691086
1158.884, 1.944901
1159.366, 1.832169
1159.848, 1.241837
1160.330, 0.4666290
1160.812, 2.6870999E-02
1161.294, 0.1624600
1161.777, 5.9810001E-03
1162.259, 0.7653200
1162.741, 1.254990
1163.223, 1.054016
1163.705, 0.5453490
1164.187, 0.6577450
1164.669, 1.130844
1165.151, 1.309448
1165.634, 0.8870850
1166.116, 0.6696010
1166.598, 1.137634
1167.080, 1.486206
1167.562, 1.206024
1168.044, 0.5506440
1168.526, 0.5002140
1169.008, 0.8944700
1169.490, 1.159897
1169.973, 1.065720
1170.455, 0.8663020
1170.937, 0.5422670
1171.419, 0.2570800
1171.901, 0.1091920
1172.383, 0.1038970
1172.865, 0.3672940
1173.347, 0.8061830
1173.829, 0.9732670
1174.312, 0.2430110
1174.794, 0.3157650
1175.276, 1.0101000E-02
1175.758, 0.4522090
1176.240, 0.2970580
1176.722, 0.4417720
1177.204, 0.4996030
1177.686, 9.3535997E-02
1178.169, 0.6288600
1178.651, 0.5964970
1179.133, 0.4437410
1179.615, 0.3788600
1180.097, 0.3548130
1180.579, 0.2993620
1181.061, 0.2129970
1181.543, 6.9504000E-02
1182.026, 0.1344300
1182.508, 0.2525180
1182.990, 0.1231540
1183.472, 7.8567997E-02
1183.954, 0.2806240
1184.436, 0.4469150
1184.918, 0.5587460
1185.400, 0.6275940
1185.882, 0.3615260
1186.365, 0.3104100
1186.847, 0.8687900
1187.329, 0.8190610
1187.811, 0.5467680
1188.293, 0.2976380
1188.775, 8.3678998E-02
1189.257, 0.1015170
1189.739, 0.2600560
1190.221, 0.4109650
1190.704, 0.5887600
1191.186, 0.5798800
1191.668, 0.1061250
1192.150, 0.8431850
1192.632, 0.9966740
1193.114, 0.6222230
1193.596, 0.4513700
1194.078, 0.5147250
1194.561, 0.4996490
1195.043, 0.3137660
1195.525, 4.7118999E-02
1196.007, 0.2251280
1196.489, 0.5033260
1196.971, 0.8432460
1197.453, 1.244705
1197.935, 1.415924
1198.417, 1.352280
1198.900, 1.088699
1199.382, 0.5257720
1199.864, 5.2276999E-02
1200.346, 0.2735750
1200.828, 0.6940160
1201.310, 0.6647950
1201.792, 6.3643999E-02
1202.274, 0.1322480
1202.756, 0.1269530
1203.239, 0.3639830
1203.721, 0.3475800
1204.203, 0.2499390
1204.685, 3.2028001E-02
1205.167, 0.1388400
1205.649, 0.6681820
1206.131, 2.860641
1206.613, 3.390244
1207.096, 2.086609
1207.578, 0.6334230
1208.060, 0.1874850
1208.542, 0.5464940
1209.024, 0.4102330
1209.506, 8.6359996E-03
1209.988, 0.3164220
1210.470, 0.5701750
1210.953, 0.5930630
1211.435, 0.3494420
1211.917, 0.1898960
1212.399, 0.4036710
1212.881, 0.7486880
1213.363, 1.140762
1213.845, 1.429718
1214.327, 1.281204
1214.809, 0.4212490
1215.292, 6.4498998E-02
1215.774, 0.2518770
1216.256, 0.6522220
1216.738, 1.189499
1217.220, 1.669907
1217.702, 1.914017
1218.184, 1.957245
1218.666, 1.863159
1219.148, 1.564072
1219.631, 1.440201
1220.113, 1.512375
1220.595, 1.686935
1221.077, 2.083023
1221.559, 2.376190
1222.041, 2.113327
1222.523, 1.554703
1223.005, 1.380234
1223.488, 1.760895
1223.970, 1.846786
1224.452, 1.538910
1224.934, 1.227692
1225.416, 1.212814
1225.898, 1.324753
1226.380, 1.409470
1226.862, 1.512177
1227.344, 1.808060
1227.827, 2.377151
1228.309, 2.579163
1228.791, 2.343033
1229.273, 1.951370
1229.755, 1.344406
1230.237, 0.9474950
1230.719, 1.409424
1231.201, 2.302856
1231.683, 2.286575
1232.166, 1.226868
1232.648, 0.9072420
1233.130, 1.596329
1233.612, 2.342438
1234.094, 2.503143
1234.576, 2.304733
1235.058, 1.715149
1235.540, 1.013809
1236.023, 0.7760310
1236.505, 1.010803
1236.987, 1.194504
1237.469, 1.256882
1237.951, 1.315140
1238.433, 1.460526
1238.915, 1.635315
1239.397, 1.916611
1239.880, 2.150970
1240.362, 1.881744
1240.844, 1.177673
1241.326, 0.8456730
1241.808, 1.020874
1242.290, 1.301575
1242.772, 1.485809
1243.254, 1.690903
1243.736, 2.025742
1244.219, 2.366013
1244.701, 2.417160
1245.183, 2.268616
1245.665, 2.365479
1246.147, 2.793442
1246.629, 3.114670
1247.111, 3.052124
1247.593, 2.826675
1248.075, 2.493134
1248.558, 2.125992
1249.040, 1.956070
1249.522, 2.077332
1250.004, 2.132996
1250.486, 2.111176
1250.968, 2.088821
1251.450, 2.158813
1251.932, 2.028809
1252.415, 1.482117
1252.897, 0.8023830
1253.379, 0.7725520
1253.861, 1.113464
1254.343, 1.406708
1254.825, 1.547028
1255.307, 1.502960
1255.789, 1.078369
1256.271, 1.034576
1256.754, 1.743469
1257.236, 2.563324
1257.718, 2.322067
1258.200, 1.538651
1258.682, 1.320602
1259.164, 1.946503
1259.646, 2.325272
1260.128, 2.131882
1260.610, 1.921402
1261.093, 1.982529
1261.575, 2.104263
1262.057, 1.905029
1262.539, 1.614197
1263.021, 1.634689
1263.503, 2.051285
1263.985, 2.188950
1264.467, 1.905457
1264.950, 1.776337
1265.432, 2.029007
1265.914, 2.299606
1266.396, 2.019958
1266.878, 1.545120
1267.360, 1.250687
1267.842, 1.166855
1268.324, 1.277679
1268.807, 1.603271
1269.289, 1.742142
1269.771, 1.561081
1270.253, 1.353424
1270.735, 1.294327
1271.217, 1.446182
1271.699, 2.045959
1272.181, 2.932144
1272.663, 3.050873
1273.146, 2.394897
1273.628, 1.664108
1274.110, 1.028671
1274.592, 0.6749110
1275.074, 0.9757540
1275.556, 1.377136
1276.038, 1.515991
1276.520, 1.450897
1277.002, 1.374268
1277.485, 1.304031
1277.967, 1.342865
1278.449, 1.537369
1278.931, 1.688416
1279.413, 1.844162
1279.895, 1.693039
1280.377, 0.8550720
1280.859, 0.2169950
1281.342, 0.2129360
1281.824, 0.5758670
1282.306, 1.451157
1282.788, 2.320923
1283.270, 2.753708
1283.752, 2.410889
1284.234, 1.920715
1284.716, 1.399124
1285.198, 0.9789580
1285.681, 0.8742520
1286.163, 1.056519
1286.645, 1.627640
1287.127, 2.676071
1287.609, 3.016205
1288.091, 2.318481
1288.573, 1.627991
1289.055, 1.202026
1289.537, 1.058640
1290.020, 1.460403
1290.502, 2.006683
1290.984, 2.162613
1291.466, 1.872269
1291.948, 1.678925
1292.430, 1.573273
1292.912, 1.720154
1293.394, 2.056213
1293.877, 2.404968
1294.359, 1.686508
1294.841, 0.8450780
1295.323, 0.8987730
1295.805, 1.559235
1296.287, 1.661026
1296.769, 1.238235
1297.251, 0.8761440
1297.734, 0.7016910
1298.216, 0.5406190
1298.698, 5.1119998E-03
1299.180, 0.2074740
1299.662, 0.4660030
1300.144, 1.552795
1300.626, 1.960693
1301.108, 1.864548
1301.590, 1.928696
1302.073, 2.117722
1302.555, 1.866196
1303.037, 1.704239
1303.519, 1.341125
1304.001, 0.8185120
1304.483, 0.3085330
##END=



