##NAMES=Margarite
##RRUFFID=R060839
##IDEAL CHEMISTRY=CaAl_2_(Si_2_Al_2_)O_10_(OH)_2_
##LOCALITY=Old Emery mine, Chester, Massachusetts, USA
##OWNER=RRUFF
##SOURCE=Michael Scott
##DESCRIPTION=Pale lilac mica associated with lilac colored axinite
##STATUS=The identification of this mineral has been confirmed by X-ray diffraction and chemical analysis
##URL=rruff.info/R060839
##MEASURED CHEMISTRY=(Ca_0.83_Na_0.17_)_Σ=1_(Al_1.97_Fe^3+^_0.02_Mg_0.01_)_Σ=2_(Si_2.18_Al_1.82_)O_10_(OH)_2_
171.1810, 0.0000000E+00
171.6631, 100.8594
172.1452, 51.67188
172.6273, 11.75000
173.1095, 142.4844
173.5916, 172.9062
174.0737, 89.00000
174.5558, 30.21875
175.0379, 58.76562
175.5201, 96.56250
176.0022, 307.7656
176.4843, 403.4531
176.9664, 387.1250
177.4485, 366.6562
177.9306, 428.7188
178.4128, 549.8438
178.8949, 686.9688
179.3770, 849.5469
179.8591, 1008.156
180.3412, 1103.922
180.8233, 1136.219
181.3055, 1155.031
181.7876, 1220.438
182.2697, 1318.375
182.7518, 1409.797
183.2339, 1452.953
183.7160, 1474.969
184.1982, 1539.109
184.6803, 1647.375
185.1624, 1782.359
185.6445, 1953.078
186.1266, 2145.781
186.6087, 2296.672
187.0908, 2340.125
187.5730, 2303.859
188.0551, 2304.031
188.5372, 2364.375
189.0193, 2423.703
189.5014, 2382.703
189.9835, 2245.094
190.4657, 2088.953
190.9478, 1940.703
191.4299, 1807.000
191.9120, 1742.797
192.3941, 1780.609
192.8762, 1852.875
193.3584, 1803.047
193.8405, 1623.766
194.3226, 1439.172
194.8047, 1337.328
195.2868, 1317.469
195.7689, 1311.031
196.2511, 1328.188
196.7332, 1347.484
197.2153, 1264.359
197.6974, 1053.844
198.1795, 898.3750
198.6616, 981.2656
199.1438, 1325.516
199.6259, 1611.734
200.1080, 1783.141
200.5901, 1856.375
201.0722, 1859.438
201.5543, 1752.375
202.0364, 1702.094
202.5186, 1886.125
203.0007, 2334.938
203.4828, 2780.094
203.9649, 3165.688
204.4470, 3493.391
204.9291, 3791.609
205.4113, 4058.328
205.8934, 4288.406
206.3755, 4466.141
206.8576, 4575.641
207.3397, 4688.422
207.8218, 4835.219
208.3040, 5015.875
208.7861, 5127.484
209.2682, 5148.531
209.7503, 5141.484
210.2324, 5210.688
210.7145, 5417.328
211.1967, 5518.625
211.6788, 5413.875
212.1609, 5105.000
212.6430, 4948.469
213.1251, 4932.453
213.6072, 4989.312
214.0894, 4980.312
214.5715, 4855.719
215.0536, 4817.625
215.5357, 4936.062
216.0178, 5229.797
216.4999, 5561.156
216.9820, 5943.422
217.4642, 6330.688
217.9463, 6638.078
218.4284, 6786.594
218.9105, 6991.594
219.3926, 7357.656
219.8747, 7946.234
220.3569, 8427.766
220.8390, 8784.906
221.3211, 9044.469
221.8032, 9285.641
222.2853, 9524.516
222.7674, 9721.906
223.2496, 9875.562
223.7317, 10036.73
224.2138, 10066.59
224.6959, 9940.906
225.1780, 9695.562
225.6601, 9412.703
226.1423, 9088.438
226.6244, 8688.594
227.1065, 8190.203
227.5886, 7537.484
228.0707, 6858.125
228.5528, 6133.672
229.0350, 5410.125
229.5171, 4827.312
229.9992, 4435.875
230.4813, 4091.391
230.9634, 3721.453
231.4455, 3286.000
231.9276, 2907.016
232.4098, 2613.844
232.8919, 2378.094
233.3740, 2087.234
233.8561, 1660.547
234.3382, 1290.938
234.8203, 1094.234
235.3025, 1189.953
235.7846, 1214.500
236.2667, 1133.203
236.7488, 971.2031
237.2309, 816.6562
237.7130, 645.5938
238.1952, 517.4531
238.6773, 473.0781
239.1594, 559.0312
239.6415, 636.6094
240.1236, 701.9062
240.6057, 755.9219
241.0879, 804.1562
241.5700, 841.5938
242.0521, 877.7188
242.5342, 914.0312
243.0163, 933.4531
243.4984, 983.1719
243.9806, 1075.859
244.4627, 1197.891
244.9448, 1287.828
245.4269, 1318.844
245.9090, 1334.781
246.3911, 1371.016
246.8732, 1466.984
247.3554, 1475.297
247.8375, 1335.797
248.3196, 1077.516
248.8017, 916.2188
249.2838, 911.0000
249.7659, 926.5312
250.2481, 882.1250
250.7302, 773.7188
251.2123, 632.0625
251.6944, 455.4688
252.1765, 257.2969
252.6586, 84.48438
253.1408, 71.42188
253.6229, 169.0625
254.1050, 163.6406
254.5871, 2.515625
255.0692, 143.0781
255.5513, 205.2500
256.0334, 218.0469
256.5156, 391.0625
256.9977, 799.7656
257.4798, 1261.375
257.9619, 1628.891
258.4440, 1826.094
258.9261, 2122.719
259.4083, 2571.562
259.8904, 3148.422
260.3725, 3676.078
260.8546, 4099.156
261.3367, 4559.391
261.8188, 5182.906
262.3010, 6064.953
262.7831, 6842.031
263.2652, 7475.656
263.7473, 7966.188
264.2294, 8351.766
264.7115, 8575.172
265.1937, 8784.703
265.6758, 9115.969
266.1579, 9637.891
266.6400, 10009.34
267.1221, 10161.42
267.6042, 10134.25
268.0864, 10119.83
268.5685, 10185.44
269.0506, 10135.59
269.5327, 9816.469
270.0148, 9189.781
270.4969, 8483.312
270.9791, 7726.562
271.4612, 6914.438
271.9433, 6013.781
272.4254, 4990.844
272.9075, 3990.625
273.3896, 3098.719
273.8718, 2318.375
274.3539, 1686.406
274.8360, 1227.500
275.3181, 906.7500
275.8002, 597.3438
276.2823, 287.0469
276.7645, 20.89062
277.2466, 161.9688
277.7287, 256.1094
278.2108, 345.3906
278.6929, 445.1250
279.1750, 547.3594
279.6572, 632.2812
280.1393, 706.0156
280.6214, 748.2969
281.1035, 743.5938
281.5856, 693.5469
282.0677, 622.0781
282.5499, 533.2500
283.0320, 425.5469
283.5141, 284.7188
283.9962, 106.0312
284.4783, 70.15625
284.9604, 227.8125
285.4425, 369.5000
285.9247, 474.3438
286.4068, 530.4062
286.8889, 569.7656
287.3710, 646.2656
287.8531, 761.5156
288.3352, 909.3594
288.8174, 1081.562
289.2995, 1281.578
289.7816, 1545.938
290.2637, 1887.312
290.7458, 2246.250
291.2279, 2501.609
291.7101, 2659.391
292.1922, 2828.609
292.6743, 3050.875
293.1564, 3329.469
293.6385, 3689.203
294.1206, 4145.672
294.6028, 4634.578
295.0849, 5080.719
295.5670, 5493.078
296.0491, 5909.109
296.5312, 6336.891
297.0133, 6788.609
297.4955, 7275.656
297.9776, 7785.016
298.4597, 8370.562
298.9418, 9089.516
299.4239, 9930.719
299.9060, 10840.41
300.3882, 11776.61
300.8703, 12759.36
301.3524, 13800.06
301.8345, 14893.94
302.3166, 16024.62
302.7987, 17207.17
303.2809, 18415.17
303.7630, 19626.48
304.2451, 20786.11
304.7272, 21932.42
305.2093, 23087.05
305.6914, 24262.86
306.1736, 25418.16
306.6557, 26612.73
307.1378, 27782.44
307.6199, 28825.02
308.1020, 29704.86
308.5841, 30457.86
309.0663, 31132.27
309.5484, 31743.89
310.0305, 32220.33
310.5126, 32572.02
310.9947, 32757.86
311.4768, 32722.14
311.9590, 32403.88
312.4411, 31913.00
312.9232, 31308.31
313.4053, 30580.80
313.8874, 29702.03
314.3695, 28655.50
314.8517, 27442.39
315.3337, 26062.28
315.8159, 24375.73
316.2980, 22666.50
316.7801, 21045.81
317.2622, 19504.11
317.7443, 17939.72
318.2264, 16245.70
318.7086, 14573.80
319.1907, 13036.17
319.6728, 11700.22
320.1549, 10452.47
320.6370, 9250.219
321.1191, 8108.469
321.6013, 7076.109
322.0834, 6201.359
322.5655, 5415.703
323.0476, 4681.266
323.5297, 3955.500
324.0118, 3328.266
324.4940, 2850.203
324.9761, 2477.484
325.4582, 2103.859
325.9403, 1655.859
326.4224, 1252.078
326.9045, 935.1719
327.3867, 731.3906
327.8688, 560.5312
328.3509, 434.2812
328.8330, 335.9531
329.3151, 236.8594
329.7972, 64.07812
330.2794, 25.57812
330.7615, 28.65625
331.2436, 273.9844
331.7257, 505.1719
332.2078, 693.0625
332.6899, 891.7031
333.1721, 1174.641
333.6542, 1560.328
334.1363, 1997.812
334.6184, 2481.406
335.1005, 3007.969
335.5826, 3559.734
336.0648, 4134.391
336.5469, 4740.516
337.0290, 5394.203
337.5111, 6095.406
337.9932, 6851.922
338.4753, 7677.078
338.9575, 8555.469
339.4396, 9425.734
339.9217, 10299.88
340.4038, 11130.75
340.8859, 11874.28
341.3680, 12511.50
341.8502, 13199.67
342.3323, 13961.23
342.8144, 14777.86
343.2965, 15580.05
343.7786, 16388.14
344.2607, 17122.44
344.7429, 17769.45
345.2250, 18325.02
345.7071, 18726.78
346.1892, 18978.62
346.6713, 19080.31
347.1534, 19064.27
347.6355, 18922.41
348.1176, 18580.62
348.5998, 17880.77
349.0819, 16932.42
349.5640, 16072.28
350.0461, 15330.50
350.5282, 14576.78
351.0103, 13592.08
351.4925, 12439.78
351.9746, 11323.19
352.4567, 10379.09
352.9388, 9519.891
353.4209, 8628.109
353.9030, 7699.016
354.3852, 6761.531
354.8673, 5803.844
355.3494, 4866.672
355.8315, 4016.781
356.3136, 3325.828
356.7957, 2715.062
357.2779, 2127.219
357.7600, 1567.750
358.2421, 1079.500
358.7242, 708.9844
359.2063, 411.1406
359.6884, 137.6250
360.1706, 162.8750
360.6527, 403.4062
361.1348, 542.5312
361.6169, 590.1406
362.0990, 583.1719
362.5811, 498.7344
363.0633, 394.6875
363.5454, 306.5312
364.0275, 237.9062
364.5096, 198.9062
364.9917, 246.5156
365.4738, 326.0781
365.9560, 314.8750
366.4381, 205.1094
366.9202, 16.15625
367.4023, 392.9219
367.8844, 1042.328
368.3665, 1559.422
368.8487, 1799.078
369.3308, 1945.172
369.8129, 2237.969
370.2950, 2811.531
370.7771, 3358.281
371.2592, 3753.547
371.7414, 3954.484
372.2235, 4431.734
372.7056, 5267.031
373.1877, 6294.359
373.6698, 7356.609
374.1519, 8436.672
374.6341, 9567.891
375.1162, 10749.14
375.5983, 11972.42
376.0804, 13158.73
376.5625, 14244.02
377.0446, 15421.27
377.5267, 16849.89
378.0089, 18573.83
378.4910, 20246.31
378.9731, 21810.64
379.4552, 23341.08
379.9373, 24937.06
380.4194, 26618.17
380.9016, 28385.09
381.3837, 30266.20
381.8658, 32259.30
382.3479, 34389.62
382.8300, 36671.41
383.3121, 39030.70
383.7943, 41320.56
384.2764, 43555.25
384.7585, 45858.34
385.2406, 48362.27
385.7227, 50933.14
386.2048, 53243.77
386.6870, 55288.69
387.1691, 57182.94
387.6512, 58973.47
388.1333, 60638.45
388.6154, 62188.72
389.0975, 63656.11
389.5797, 64939.23
390.0618, 65944.66
390.5439, 66690.56
391.0260, 67186.56
391.5081, 67445.50
391.9902, 67467.08
392.4724, 67246.53
392.9545, 66755.50
393.4366, 66109.06
393.9187, 65351.62
394.4008, 64493.66
394.8829, 63522.38
395.3651, 62537.69
395.8472, 61369.23
396.3293, 59909.41
396.8114, 58088.94
397.2935, 56222.69
397.7756, 54388.94
398.2578, 52518.47
398.7399, 50511.06
399.2220, 48280.77
399.7041, 45986.47
400.1862, 43628.23
400.6683, 41200.42
401.1505, 38761.27
401.6326, 36246.66
402.1147, 33795.25
402.5968, 31480.25
403.0789, 29347.02
403.5610, 27247.52
404.0432, 25148.12
404.5253, 23091.66
405.0074, 21208.30
405.4895, 19503.92
405.9716, 17901.50
406.4537, 16379.31
406.9359, 14934.48
407.4180, 13547.64
407.9001, 12170.77
408.3822, 10888.48
408.8643, 9831.469
409.3464, 8996.609
409.8285, 8269.328
410.3106, 7628.297
410.7928, 7066.047
411.2749, 6541.562
411.7570, 6052.641
412.2391, 5652.281
412.7212, 5384.047
413.2033, 5236.781
413.6855, 5188.469
414.1676, 5252.438
414.6497, 5380.266
415.1318, 5528.312
415.6139, 5693.250
416.0960, 5857.250
416.5782, 5981.578
417.0603, 6112.484
417.5424, 6325.438
418.0245, 6672.203
418.5066, 6913.609
418.9887, 6797.016
419.4709, 6514.797
419.9530, 6367.812
420.4351, 6663.188
420.9172, 6952.703
421.3993, 7041.688
421.8814, 6918.797
422.3636, 6737.203
422.8457, 6511.766
423.3278, 6258.703
423.8099, 5995.578
424.2920, 5756.562
424.7741, 5480.672
425.2563, 5118.609
425.7384, 4703.359
426.2205, 4383.531
426.7026, 4192.812
427.1847, 4051.562
427.6668, 3918.781
428.1490, 3765.984
428.6311, 3694.875
429.1132, 3698.969
429.5953, 3783.141
430.0774, 3972.156
430.5595, 4285.375
431.0417, 4594.250
431.5238, 4831.734
432.0059, 5019.719
432.4880, 5342.031
432.9701, 5818.516
433.4522, 6321.312
433.9344, 6730.078
434.4165, 7058.156
434.8986, 7422.547
435.3807, 7834.547
435.8628, 8318.812
436.3449, 8990.656
436.8271, 9809.438
437.3092, 10541.48
437.7913, 10961.44
438.2734, 11233.91
438.7555, 11594.39
439.2376, 12075.20
439.7197, 12547.27
440.2018, 12977.95
440.6840, 13315.97
441.1661, 13483.84
441.6482, 13402.19
442.1303, 13173.19
442.6124, 12806.97
443.0945, 12314.02
443.5767, 11808.61
444.0588, 11307.00
444.5409, 10820.28
445.0230, 10366.80
445.5051, 10086.81
445.9872, 9638.703
446.4694, 8874.625
446.9515, 7921.781
447.4336, 7055.562
447.9157, 6287.078
448.3978, 5607.641
448.8799, 5047.859
449.3621, 4633.828
449.8442, 4136.594
450.3263, 3462.625
450.8084, 2818.438
451.2905, 2430.906
451.7726, 2365.859
452.2548, 2302.344
452.7369, 2196.188
453.2190, 2044.781
453.7011, 1835.719
454.1832, 1563.188
454.6653, 1264.578
455.1475, 933.4219
455.6296, 585.8906
456.1117, 297.4062
456.5938, 73.01562
457.0759, 75.25000
457.5580, 72.95312
458.0402, 34.70312
458.5223, 93.96875
459.0044, 17.71875
459.4865, 120.9375
459.9686, 238.2812
460.4507, 334.7656
460.9329, 435.0781
461.4150, 605.7969
461.8971, 762.7188
462.3792, 809.5156
462.8613, 657.6875
463.3434, 518.1094
463.8256, 560.9219
464.3077, 682.2031
464.7898, 670.9219
465.2719, 306.5000
465.7540, 57.98438
466.2361, 285.4688
466.7183, 352.2500
467.2004, 393.0312
467.6825, 299.9219
468.1646, 254.6406
468.6467, 409.5156
469.1288, 907.2656
469.6110, 1352.266
470.0930, 1703.266
470.5752, 1969.422
471.0573, 2191.906
471.5394, 2354.109
472.0215, 2497.781
472.5036, 2621.906
472.9857, 2718.828
473.4679, 2923.047
473.9500, 3268.578
474.4321, 3609.891
474.9142, 3721.844
475.3963, 3643.734
475.8784, 3647.375
476.3606, 3861.016
476.8427, 4171.656
477.3248, 4379.469
477.8069, 4507.922
478.2890, 4650.734
478.7711, 4882.297
479.2533, 5174.797
479.7354, 5483.859
480.2175, 5791.625
480.6996, 6150.453
481.1817, 6561.266
481.6638, 7029.188
482.1460, 7568.328
482.6281, 8228.078
483.1102, 8895.969
483.5923, 9570.359
484.0744, 10234.17
484.5565, 10721.77
485.0387, 10840.62
485.5208, 10867.66
486.0029, 10971.44
486.4850, 11371.16
486.9671, 11469.41
487.4492, 11142.66
487.9314, 10568.97
488.4135, 10091.84
488.8956, 9790.125
489.3777, 9454.062
489.8598, 9038.375
490.3419, 8547.031
490.8241, 7936.250
491.3062, 7176.250
491.7883, 6451.938
492.2704, 5940.094
492.7525, 5624.188
493.2346, 5296.344
493.7168, 4920.312
494.1989, 4524.281
494.6810, 4154.438
495.1631, 3807.875
495.6452, 3466.062
496.1273, 3068.219
496.6095, 2689.969
497.0916, 2451.625
497.5737, 2356.125
498.0558, 2297.781
498.5379, 2232.281
499.0201, 2136.469
499.5022, 1996.375
499.9843, 1750.656
500.4664, 1571.438
500.9485, 1592.188
501.4306, 1731.625
501.9127, 1788.500
502.3948, 1598.062
502.8770, 1437.406
503.3591, 1404.094
503.8412, 1509.812
504.3233, 1637.344
504.8054, 1799.562
505.2875, 1966.094
505.7697, 2109.688
506.2518, 2226.781
506.7339, 2281.062
507.2160, 2249.062
507.6981, 2164.344
508.1802, 2111.875
508.6624, 2095.875
509.1445, 2086.750
509.6266, 2101.469
510.1087, 2120.469
510.5908, 2032.844
511.0729, 1834.562
511.5551, 1643.062
512.0372, 1580.094
512.5193, 1606.062
513.0014, 1635.719
513.4835, 1633.250
513.9656, 1657.938
514.4478, 1798.438
514.9299, 2001.250
515.4120, 2146.562
515.8941, 2087.344
516.3762, 2023.719
516.8583, 2074.062
517.3405, 2250.938
517.8226, 2423.719
518.3047, 2574.594
518.7868, 2671.062
519.2689, 2700.719
519.7510, 2635.969
520.2332, 2562.531
520.7153, 2489.469
521.1974, 2425.531
521.6795, 2372.625
522.1616, 2324.281
522.6437, 2276.656
523.1259, 2258.594
523.6080, 2276.625
524.0901, 2280.500
524.5722, 2246.094
525.0543, 2205.344
525.5364, 2222.125
526.0186, 2289.125
526.5007, 2349.188
526.9828, 2401.812
527.4649, 2403.719
527.9470, 2271.375
528.4291, 2036.781
528.9113, 1793.375
529.3934, 1534.406
529.8755, 1323.906
530.3576, 1253.062
530.8397, 1315.500
531.3218, 1339.781
531.8040, 1242.844
532.2861, 1079.000
532.7682, 882.3750
533.2503, 583.6250
533.7324, 384.0625
534.2145, 406.4375
534.6967, 530.0625
535.1788, 547.3750
535.6609, 423.4062
536.1430, 252.6875
536.6251, 41.06250
537.1072, 204.5625
537.5894, 408.9062
538.0715, 585.1875
538.5536, 676.8750
539.0357, 618.5000
539.5178, 419.1250
539.9999, 219.8125
540.4821, 36.31250
540.9642, 129.2500
541.4463, 294.0938
541.9284, 437.9688
542.4105, 501.6875
542.8926, 376.8125
543.3748, 231.1562
543.8569, 243.0312
544.3390, 392.5312
544.8211, 606.1250
545.3032, 1015.781
545.7853, 1358.594
546.2675, 1390.250
546.7495, 983.0625
547.2316, 671.4375
547.7137, 723.1875
548.1959, 894.7500
548.6780, 934.3438
549.1601, 688.1562
549.6422, 487.0000
550.1243, 353.5938
550.6064, 289.6250
551.0886, 311.7188
551.5707, 459.8438
552.0528, 601.3125
552.5349, 680.3125
553.0170, 698.9375
553.4991, 691.8750
553.9813, 662.6875
554.4634, 584.0312
554.9455, 357.5938
555.4276, 44.00000
555.9097, 101.4062
556.3918, 16.50000
556.8740, 210.0938
557.3561, 291.8125
557.8382, 286.5312
558.3203, 251.3125
558.8024, 180.4062
559.2845, 119.9375
559.7667, 105.7500
560.2488, 136.5000
560.7309, 179.0312
561.2130, 266.0625
561.6951, 327.4688
562.1772, 312.0312
562.6594, 119.1562
563.1415, 20.96875
563.6236, 32.31250
564.1057, 121.2500
564.5878, 262.9688
565.0699, 481.9688
565.5521, 661.0938
566.0342, 770.0938
566.5163, 819.8125
566.9984, 856.3750
567.4805, 877.9375
567.9626, 895.8750
568.4448, 927.5938
568.9269, 962.5312
569.4090, 979.9375
569.8911, 979.8125
570.3732, 944.2500
570.8553, 830.8438
571.3375, 678.1562
571.8196, 539.7188
572.3017, 417.0938
572.7838, 332.6250
573.2659, 353.5312
573.7480, 415.6875
574.2302, 393.3125
574.7123, 103.8125
575.1944, 133.3438
575.6765, 165.5625
576.1586, 12.93750
576.6407, 83.25000
577.1229, 15.31250
577.6050, 109.7812
578.0871, 259.4375
578.5692, 450.3750
579.0513, 556.9375
579.5334, 546.1875
580.0156, 505.3750
580.4977, 605.5312
580.9798, 823.3125
581.4619, 876.5625
581.9440, 621.3750
582.4261, 249.0625
582.9083, 81.18750
583.3904, 84.62500
583.8725, 98.87500
584.3546, 42.65625
584.8367, 38.75000
585.3188, 88.90625
585.8010, 98.50000
586.2831, 173.4375
586.7652, 501.1562
587.2473, 821.5312
587.7294, 933.5938
588.2115, 567.1562
588.6937, 360.5312
589.1758, 423.7812
589.6579, 622.5625
590.1400, 765.3750
590.6221, 872.1250
591.1042, 861.2500
591.5864, 673.1562
592.0685, 373.0938
592.5506, 192.3750
593.0327, 132.3125
593.5148, 148.2188
593.9969, 281.2812
594.4791, 462.1875
594.9612, 475.6875
595.4433, 309.7500
595.9254, 136.7500
596.4075, 158.4062
596.8896, 262.9062
597.3718, 281.8125
597.8539, 115.8125
598.3360, 36.93750
598.8181, 55.50000
599.3002, 3.437500
599.7823, 4.343750
600.2645, 187.5000
600.7466, 297.3750
601.2287, 229.7188
601.7108, 0.2187500
602.1929, 198.4688
602.6750, 354.5312
603.1572, 494.5938
603.6393, 646.1250
604.1214, 811.0625
604.6035, 834.3438
605.0856, 674.5625
605.5677, 531.8438
606.0499, 690.3438
606.5320, 1055.625
607.0141, 1271.781
607.4962, 1208.406
607.9783, 1086.719
608.4604, 1159.000
608.9425, 1353.469
609.4246, 1505.094
609.9067, 1499.312
610.3889, 1465.781
610.8710, 1479.750
611.3531, 1533.094
611.8352, 1547.625
612.3173, 1505.688
612.7994, 1422.469
613.2816, 1292.719
613.7637, 1104.688
614.2458, 987.9375
614.7279, 989.6562
615.2100, 1002.250
615.6921, 895.4688
616.1743, 660.5625
616.6564, 519.4062
617.1385, 515.4375
617.6206, 599.1250
618.1027, 748.9062
618.5848, 931.5938
619.0670, 1028.031
619.5491, 873.6250
620.0312, 683.4375
620.5133, 671.9062
620.9954, 809.9375
621.4775, 974.7500
621.9597, 1082.375
622.4418, 1213.500
622.9239, 1449.719
623.4060, 1838.031
623.8881, 2079.156
624.3702, 2032.156
624.8524, 1904.500
625.3345, 1843.281
625.8166, 1883.406
626.2987, 1891.719
626.7808, 1849.438
627.2629, 1795.219
627.7451, 1813.125
628.2272, 1902.312
628.7093, 1940.906
629.1914, 1891.094
629.6735, 1776.625
630.1556, 1588.438
630.6378, 1357.406
631.1199, 1206.250
631.6020, 1295.219
632.0841, 1434.688
632.5662, 1448.062
633.0483, 1318.156
633.5305, 1232.094
634.0126, 1248.625
634.4947, 1349.375
634.9768, 1537.469
635.4589, 1893.781
635.9410, 2145.594
636.4232, 2231.750
636.9053, 2267.438
637.3874, 2400.312
637.8695, 2651.750
638.3516, 2850.812
638.8337, 2949.938
639.3159, 2997.719
639.7980, 3111.562
640.2801, 3288.156
640.7622, 3432.719
641.2443, 3448.906
641.7264, 3442.500
642.2086, 3565.562
642.6907, 3806.750
643.1728, 4058.719
643.6549, 4340.000
644.1370, 4572.938
644.6191, 4676.688
645.1013, 4593.969
645.5834, 4635.281
646.0655, 4865.031
646.5476, 5222.750
647.0297, 5682.969
647.5118, 6327.469
647.9940, 6836.438
648.4761, 7151.688
648.9582, 7363.344
649.4403, 7622.625
649.9224, 7915.062
650.4045, 8186.594
650.8867, 8427.000
651.3688, 8623.500
651.8509, 8743.281
652.3330, 8803.719
652.8151, 8862.750
653.2972, 9007.750
653.7794, 9128.875
654.2615, 9094.438
654.7436, 8921.469
655.2257, 8865.594
655.7078, 9138.125
656.1899, 9454.969
656.6721, 9639.156
657.1542, 9613.938
657.6363, 9735.969
658.1184, 10060.69
658.6005, 10443.31
659.0826, 10718.03
659.5648, 10868.78
660.0469, 11143.34
660.5290, 11611.50
661.0111, 12108.06
661.4932, 12324.12
661.9753, 12356.47
662.4575, 12499.53
662.9396, 12904.84
663.4217, 13435.97
663.9038, 14051.41
664.3859, 14718.19
664.8680, 15311.03
665.3502, 15696.25
665.8323, 16094.81
666.3144, 16629.97
666.7965, 17308.53
667.2786, 17853.12
667.7607, 18130.31
668.2429, 18425.28
668.7250, 18906.44
669.2071, 19588.41
669.6892, 20130.09
670.1713, 20513.59
670.6534, 20774.34
671.1355, 20949.25
671.6176, 21029.25
672.0997, 20995.00
672.5818, 20849.25
673.0640, 20595.19
673.5461, 20190.53
674.0282, 19709.81
674.5103, 19257.22
674.9924, 18952.47
675.4745, 18626.00
675.9567, 18174.16
676.4388, 17677.91
676.9209, 17365.44
677.4030, 17395.72
677.8851, 17393.22
678.3672, 17240.53
678.8494, 16966.84
679.3315, 16743.84
679.8136, 16561.28
680.2957, 16487.41
680.7778, 16596.72
681.2599, 16818.16
681.7421, 16950.28
682.2242, 16982.38
682.7063, 16994.47
683.1884, 17006.34
683.6705, 17040.50
684.1526, 17166.12
684.6348, 17461.84
685.1169, 17597.84
685.5990, 17382.47
686.0811, 16994.78
686.5632, 16609.34
687.0453, 16174.28
687.5275, 15890.84
688.0096, 15864.72
688.4917, 15935.59
688.9738, 15798.03
689.4559, 15433.88
689.9380, 15114.66
690.4202, 14915.50
690.9023, 14797.06
691.3844, 14658.75
691.8665, 14522.34
692.3486, 14492.31
692.8307, 14785.81
693.3129, 15072.47
693.7950, 14996.75
694.2771, 14608.41
694.7592, 14356.75
695.2413, 14476.94
695.7234, 14689.19
696.2056, 14861.47
696.6877, 14985.91
697.1698, 15131.72
697.6519, 15315.22
698.1340, 15508.34
698.6161, 15700.75
699.0983, 15899.19
699.5804, 16059.62
700.0625, 16163.66
700.5446, 16347.94
701.0267, 16817.62
701.5089, 17467.75
701.9910, 18077.97
702.4731, 18557.50
702.9552, 19074.38
703.4373, 19735.09
703.9194, 20506.88
704.4016, 21335.69
704.8837, 22349.59
705.3658, 23222.25
705.8479, 23849.47
706.3300, 24304.41
706.8121, 24785.97
707.2943, 25313.50
707.7764, 25825.59
708.2585, 26319.56
708.7406, 26771.78
709.2227, 27155.28
709.7048, 27486.47
710.1870, 27635.94
710.6691, 27511.72
711.1512, 27173.81
711.6333, 26657.88
712.1154, 25972.59
712.5975, 25218.16
713.0797, 24396.22
713.5618, 23544.56
714.0439, 22699.22
714.5260, 21872.69
715.0081, 20972.72
715.4902, 19982.47
715.9724, 18947.41
716.4545, 17890.81
716.9366, 16787.59
717.4187, 15812.44
717.9008, 14995.88
718.3829, 14238.28
718.8651, 13414.88
719.3472, 12559.78
719.8293, 11694.31
720.3114, 10797.56
720.7935, 9989.344
721.2756, 9454.312
721.7578, 9043.531
722.2399, 8546.781
722.7220, 7714.031
723.2041, 7014.344
723.6862, 6667.344
724.1683, 6489.781
724.6505, 6046.406
725.1326, 5200.531
725.6147, 4489.688
726.0968, 4109.406
726.5789, 3945.500
727.0610, 3629.500
727.5432, 3177.562
728.0253, 2779.562
728.5074, 2614.438
728.9895, 2520.812
729.4716, 2290.000
729.9537, 1940.250
730.4359, 1621.562
730.9180, 1422.438
731.4001, 1262.156
731.8822, 1098.312
732.3643, 926.4062
732.8464, 780.1562
733.3285, 685.3125
733.8106, 573.1562
734.2927, 355.8125
734.7748, 18.31250
735.2570, 90.62500
735.7391, 66.46875
736.2212, 213.7188
736.7033, 2.625000
737.1854, 396.3125
737.6675, 624.5625
738.1497, 588.2500
738.6318, 514.1250
739.1139, 574.9688
739.5960, 650.9375
740.0781, 613.5625
740.5602, 331.7188
741.0424, 57.87500
741.5245, 214.5625
742.0066, 466.4688
742.4887, 647.0625
742.9708, 727.0625
743.4529, 865.3125
743.9351, 1085.062
744.4172, 1355.875
744.8993, 1666.375
745.3814, 1981.469
745.8635, 2195.719
746.3456, 2174.344
746.8278, 2120.906
747.3099, 2220.031
747.7920, 2414.156
748.2741, 2566.406
748.7562, 2740.219
749.2383, 2757.219
749.7205, 2540.031
750.2026, 2137.656
750.6847, 1727.625
751.1668, 1301.312
751.6489, 946.5000
752.1310, 696.0000
752.6132, 557.4688
753.0953, 560.3438
753.5774, 700.8438
754.0595, 890.3125
754.5416, 1094.531
755.0237, 1291.312
755.5059, 1470.219
755.9880, 1617.344
756.4701, 1688.219
756.9522, 1578.844
757.4343, 1433.156
757.9164, 1342.750
758.3986, 1328.125
758.8807, 1216.562
759.3628, 997.9062
759.8449, 716.6875
760.3270, 385.1875
760.8091, 25.28125
761.2913, 246.3125
761.7734, 405.7812
762.2555, 480.5000
762.7376, 439.3438
763.2197, 337.7500
763.7018, 245.8438
764.1840, 160.5938
764.6661, 132.0938
765.1482, 339.5000
765.6303, 533.9688
766.1124, 459.1250
766.5945, 93.25000
767.0767, 464.3750
767.5588, 564.0312
768.0409, 549.5312
768.5230, 617.1250
769.0051, 758.0000
769.4872, 907.2500
769.9694, 1037.500
770.4515, 1171.875
770.9336, 1406.281
771.4157, 1658.281
771.8978, 1774.812
772.3799, 1655.250
772.8621, 1463.344
773.3442, 1278.750
773.8263, 1072.312
774.3084, 768.8125
774.7905, 241.2500
775.2726, 107.4375
775.7548, 143.8125
776.2369, 9.937500
776.7190, 48.59375
777.2011, 30.56250
777.6832, 124.6562
778.1653, 228.3750
778.6475, 286.7188
779.1296, 214.9062
779.6117, 49.25000
780.0938, 132.2812
780.5759, 308.2188
781.0580, 483.2812
781.5402, 626.0938
782.0223, 733.1875
782.5044, 847.7812
782.9865, 975.8438
783.4686, 1096.656
783.9507, 1214.094
784.4329, 1312.375
784.9150, 1324.094
785.3971, 1248.844
785.8792, 1192.750
786.3613, 1249.344
786.8434, 1353.719
787.3256, 1382.938
787.8077, 1367.000
788.2898, 1459.000
788.7719, 1912.594
789.2540, 2322.781
789.7361, 2439.344
790.2183, 2269.719
790.7004, 2194.219
791.1825, 2201.219
791.6646, 2303.281
792.1467, 2534.031
792.6288, 2866.156
793.1110, 3173.719
793.5930, 3452.875
794.0751, 3685.750
794.5573, 3851.969
795.0394, 3946.281
795.5215, 3958.750
796.0036, 3904.094
796.4857, 3877.688
796.9678, 3969.188
797.4500, 4038.938
797.9321, 4000.875
798.4142, 3846.719
798.8963, 3812.531
799.3784, 3947.062
799.8605, 4065.969
800.3427, 4049.938
800.8248, 3927.656
801.3069, 3749.125
801.7890, 3516.031
802.2711, 3348.000
802.7532, 3350.875
803.2354, 3449.094
803.7175, 3608.531
804.1996, 3849.875
804.6817, 3971.094
805.1638, 3865.406
805.6459, 3671.844
806.1281, 3433.281
806.6102, 3106.500
807.0923, 3001.438
807.5744, 3161.875
808.0565, 3357.406
808.5386, 3339.062
809.0208, 3199.656
809.5029, 3173.250
809.9850, 3291.156
810.4671, 3460.906
810.9492, 3674.531
811.4313, 3874.406
811.9135, 3998.688
812.3956, 3990.312
812.8777, 4035.656
813.3598, 4188.531
813.8419, 4337.250
814.3240, 4406.781
814.8062, 4397.125
815.2883, 4245.750
815.7704, 3927.531
816.2525, 3611.281
816.7346, 3547.844
817.2167, 3577.500
817.6989, 3414.625
818.1810, 2975.375
818.6631, 2539.781
819.1452, 2208.719
819.6273, 1950.875
820.1094, 1749.844
820.5916, 1632.625
821.0737, 1531.469
821.5558, 1458.094
822.0379, 1384.688
822.5200, 1248.719
823.0021, 1062.188
823.4843, 985.4062
823.9664, 1058.125
824.4485, 1180.531
824.9306, 1273.219
825.4127, 1299.469
825.8948, 1184.688
826.3770, 812.3125
826.8591, 568.5625
827.3412, 522.0625
827.8233, 648.6875
828.3054, 1006.969
828.7875, 1736.688
829.2697, 2037.969
829.7518, 1820.688
830.2339, 1416.531
830.7160, 1127.875
831.1981, 936.6250
831.6802, 816.5938
832.1624, 785.5312
832.6445, 710.2500
833.1266, 415.0625
833.6087, 83.81250
834.0908, 112.5938
834.5729, 88.78125
835.0551, 73.46875
835.5372, 88.03125
836.0193, 82.93750
836.5014, 35.71875
836.9835, 265.8750
837.4656, 293.4375
837.9478, 68.46875
838.4299, 175.3125
838.9120, 200.8125
839.3941, 118.0625
839.8762, 70.68750
840.3583, 91.06250
840.8405, 111.9062
841.3226, 167.9375
841.8047, 169.8750
842.2868, 31.40625
842.7689, 337.0312
843.2510, 494.7500
843.7332, 393.1250
844.2153, 224.2500
844.6974, 162.6250
845.1795, 178.5938
845.6616, 197.3438
846.1437, 209.7188
846.6259, 209.7188
847.1080, 151.1250
847.5901, 102.3125
848.0722, 143.9062
848.5543, 351.9062
849.0364, 413.5000
849.5186, 285.4688
850.0007, 74.84375
850.4828, 176.2188
850.9649, 459.9375
851.4470, 605.6875
851.9291, 596.3125
852.4113, 574.4375
852.8934, 690.1562
853.3755, 834.7812
853.8576, 875.6875
854.3397, 792.4688
854.8218, 674.1250
855.3040, 510.6250
855.7860, 352.1250
856.2681, 258.6875
856.7502, 251.5312
857.2324, 30.31250
857.7145, 448.0938
858.1966, 892.1875
858.6787, 1033.906
859.1608, 991.3750
859.6429, 1042.219
860.1251, 1183.438
860.6072, 1339.594
861.0893, 1495.938
861.5714, 1617.719
862.0535, 1657.125
862.5356, 1600.938
863.0178, 1648.125
863.4999, 1855.594
863.9820, 2054.531
864.4641, 2187.281
864.9462, 2244.719
865.4283, 2073.625
865.9105, 1707.469
866.3926, 1483.781
866.8747, 1815.812
867.3568, 2240.906
867.8389, 2279.594
868.3210, 2000.812
868.8032, 1871.594
869.2853, 2278.594
869.7674, 2541.438
870.2495, 2425.625
870.7316, 2030.375
871.2137, 1829.031
871.6959, 1829.031
872.1780, 1897.531
872.6601, 2009.625
873.1422, 2123.031
873.6243, 2118.781
874.1064, 2056.406
874.5886, 2119.594
875.0707, 2514.625
875.5528, 2889.125
876.0349, 3074.844
876.5170, 3152.094
876.9991, 3322.375
877.4813, 3609.156
877.9634, 3870.094
878.4455, 4055.625
878.9276, 4219.281
879.4097, 4493.406
879.8918, 4828.938
880.3740, 5079.219
880.8561, 5119.000
881.3382, 5169.844
881.8203, 5373.781
882.3024, 5661.688
882.7845, 5905.719
883.2667, 6014.250
883.7488, 6257.125
884.2309, 6664.938
884.7130, 7190.156
885.1951, 7865.625
885.6772, 8622.656
886.1594, 9119.625
886.6415, 9182.812
887.1236, 9303.625
887.6057, 10005.25
888.0878, 10928.00
888.5699, 11641.16
889.0521, 11852.62
889.5342, 12267.00
890.0163, 12952.50
890.4984, 13793.97
890.9805, 14738.91
891.4626, 15773.34
891.9448, 16741.91
892.4269, 17628.50
892.9090, 18499.91
893.3911, 19378.81
893.8732, 20277.31
894.3553, 21236.06
894.8375, 22280.34
895.3196, 23223.78
895.8017, 23932.28
896.2838, 24597.78
896.7659, 25371.59
897.2480, 26258.09
897.7302, 26965.00
898.2123, 27474.81
898.6944, 27893.38
899.1765, 28212.59
899.6586, 28540.47
900.1407, 29038.28
900.6229, 29714.62
901.1050, 30415.91
901.5871, 31061.69
902.0692, 31770.38
902.5513, 32655.75
903.0334, 33669.31
903.5156, 34483.09
903.9977, 35057.56
904.4798, 35754.22
904.9619, 36752.69
905.4440, 37919.09
905.9261, 39067.66
906.4083, 40195.84
906.8904, 41314.47
907.3725, 42434.75
907.8546, 43506.75
908.3367, 44508.50
908.8188, 45443.59
909.3010, 46293.16
909.7831, 47072.78
910.2652, 47774.88
910.7473, 48366.34
911.2294, 48924.47
911.7115, 49604.03
912.1937, 50364.78
912.6758, 51124.94
913.1579, 51921.75
913.6400, 52543.44
914.1221, 52742.72
914.6042, 52771.06
915.0864, 52937.88
915.5685, 53337.91
916.0506, 53616.38
916.5327, 53750.72
917.0148, 53811.47
917.4969, 53888.69
917.9790, 53958.94
918.4611, 53928.25
918.9432, 53788.34
919.4254, 53677.03
919.9075, 53752.44
920.3896, 53837.44
920.8717, 53773.66
921.3538, 53530.97
921.8359, 53400.81
922.3181, 53451.44
922.8002, 53381.84
923.2823, 52953.59
923.7644, 52254.00
924.2465, 51597.03
924.7286, 50961.00
925.2108, 50303.81
925.6929, 49637.06
926.1750, 48897.78
926.6571, 48053.06
927.1392, 47097.94
927.6213, 46009.25
928.1035, 44713.81
928.5856, 43564.84
929.0677, 42708.69
929.5498, 42009.12
930.0319, 41121.84
930.5140, 40109.56
930.9962, 39161.94
931.4783, 38408.56
931.9604, 37657.31
932.4425, 36752.12
932.9246, 35793.16
933.4067, 34900.25
933.8889, 34076.19
934.3710, 33324.97
934.8531, 32665.50
935.3352, 32044.16
935.8173, 31421.47
936.2994, 30787.62
936.7816, 30144.50
937.2637, 29480.19
937.7458, 28828.72
938.2279, 28162.25
938.7100, 27545.44
939.1921, 27098.31
939.6743, 26885.09
940.1564, 26402.12
940.6385, 25557.47
941.1206, 24710.75
941.6027, 24123.00
942.0848, 23695.31
942.5670, 23060.31
943.0491, 22263.25
943.5312, 21523.44
944.0133, 21032.38
944.4954, 20575.00
944.9775, 20044.56
945.4597, 19449.41
945.9418, 18853.12
946.4239, 18241.16
946.9060, 17682.94
947.3881, 17201.59
947.8702, 16772.97
948.3524, 16371.56
948.8345, 15986.72
949.3166, 15581.22
949.7987, 15102.75
950.2808, 14669.69
950.7629, 14376.69
951.2451, 14141.69
951.7272, 13866.31
952.2093, 13534.34
952.6914, 13187.88
953.1735, 12821.44
953.6556, 12440.06
954.1378, 12002.03
954.6199, 11569.09
955.1020, 11292.56
955.5841, 11189.31
956.0662, 11069.22
956.5483, 10877.97
957.0305, 10609.69
957.5126, 10224.25
957.9947, 9740.000
958.4768, 9406.469
958.9589, 9244.344
959.4410, 9103.688
959.9232, 8912.750
960.4053, 8693.875
960.8874, 8433.031
961.3695, 8166.062
961.8516, 8006.875
962.3337, 8211.750
962.8159, 8261.594
963.2980, 7860.438
963.7801, 7295.875
964.2622, 7109.344
964.7443, 7355.719
965.2264, 7306.250
965.7086, 6804.656
966.1907, 6113.750
966.6728, 5342.438
967.1549, 4643.781
967.6370, 4291.781
968.1191, 4477.312
968.6013, 4523.688
969.0834, 4179.438
969.5655, 3785.844
970.0476, 3550.625
970.5297, 3471.844
971.0118, 3307.344
971.4940, 3057.656
971.9761, 2786.031
972.4582, 2449.750
972.9403, 2180.469
973.4224, 2182.531
973.9045, 2391.594
974.3867, 2421.938
974.8688, 1927.531
975.3509, 1709.312
975.8330, 2053.375
976.3151, 2663.188
976.7972, 2816.781
977.2794, 2578.562
977.7615, 2313.594
978.2436, 2128.656
978.7257, 1941.312
979.2078, 1616.719
979.6899, 1281.688
980.1720, 1098.469
980.6541, 1177.656
981.1362, 1177.312
981.6183, 1081.938
982.1005, 950.8125
982.5826, 831.0625
983.0647, 724.6562
983.5468, 601.5000
984.0289, 472.3125
984.5110, 461.1250
984.9932, 948.1250
985.4753, 1291.812
985.9574, 972.0625
986.4395, 151.7188
986.9216, 354.7500
987.4037, 513.7188
987.8859, 516.5000
988.3680, 364.8125
988.8501, 194.7812
989.3322, 261.6562
989.8143, 475.0312
990.2964, 644.5000
990.7786, 693.6875
991.2607, 703.5938
991.7428, 632.9688
992.2249, 577.5000
992.7070, 662.3750
993.1891, 900.5312
993.6713, 997.7812
994.1534, 933.2500
994.6355, 788.0625
995.1176, 616.5000
995.5997, 411.0312
996.0818, 111.8125
996.5640, 282.1875
997.0461, 484.8750
997.5282, 323.4688
998.0103, 174.8125
998.4924, 133.7500
998.9745, 210.2500
999.4567, 519.1562
999.9388, 1004.438
1000.421, 1359.000
1000.903, 1357.219
1001.385, 1344.219
1001.867, 1656.062
1002.349, 2050.562
1002.831, 2128.750
1003.314, 1695.125
1003.796, 1448.844
1004.278, 1450.156
1004.760, 1538.812
1005.242, 1563.625
1005.724, 1557.219
1006.206, 1619.438
1006.688, 1758.062
1007.171, 1805.125
1007.653, 1559.062
1008.135, 1343.281
1008.617, 1339.094
1009.099, 1500.594
1009.581, 1525.375
1010.063, 1413.281
1010.545, 1337.625
1011.027, 1352.469
1011.510, 1429.250
1011.992, 1575.344
1012.474, 1751.094
1012.956, 1872.969
1013.438, 1874.125
1013.920, 1867.000
1014.402, 1846.125
1014.884, 1828.844
1015.367, 1829.281
1015.849, 1849.406
1016.331, 1923.062
1016.813, 2052.875
1017.295, 2137.562
1017.777, 2042.375
1018.259, 1941.594
1018.741, 1973.125
1019.223, 2125.875
1019.706, 2241.562
1020.188, 2328.156
1020.670, 2361.438
1021.152, 2287.125
1021.634, 2215.406
1022.116, 2326.906
1022.598, 2601.625
1023.080, 2986.781
1023.563, 3536.156
1024.045, 4036.438
1024.527, 4474.812
1025.009, 4814.781
1025.491, 4967.188
1025.973, 4916.188
1026.455, 4922.969
1026.937, 4998.406
1027.419, 5124.875
1027.901, 5367.094
1028.384, 5590.688
1028.866, 5656.750
1029.348, 5588.656
1029.830, 5566.875
1030.312, 5633.250
1030.794, 5718.812
1031.276, 5844.625
1031.758, 5947.344
1032.241, 5882.750
1032.723, 5701.125
1033.205, 5499.344
1033.687, 5266.594
1034.169, 5139.438
1034.651, 5200.500
1035.133, 5374.500
1035.615, 5623.188
1036.098, 5952.625
1036.580, 6099.781
1037.062, 6040.688
1037.544, 6064.250
1038.026, 6521.375
1038.508, 7025.469
1038.990, 7137.781
1039.472, 6933.594
1039.954, 6739.781
1040.437, 6670.875
1040.919, 6534.562
1041.401, 6293.281
1041.883, 6013.562
1042.365, 5831.812
1042.847, 5706.281
1043.329, 5456.906
1043.811, 5044.156
1044.293, 4644.000
1044.776, 4401.750
1045.258, 4166.219
1045.740, 3813.969
1046.222, 3357.719
1046.704, 3040.219
1047.186, 2855.719
1047.668, 2762.719
1048.150, 2793.562
1048.633, 2847.219
1049.115, 2775.156
1049.597, 2633.531
1050.079, 2532.688
1050.561, 2412.594
1051.043, 2478.625
1051.525, 2836.469
1052.007, 3247.000
1052.490, 3427.531
1052.972, 3431.281
1053.454, 3416.062
1053.936, 3395.969
1054.418, 3481.344
1054.900, 3894.375
1055.382, 4258.062
1055.864, 4312.906
1056.346, 4129.656
1056.828, 4014.812
1057.311, 3975.781
1057.793, 3851.344
1058.275, 3549.406
1058.757, 3242.156
1059.239, 3182.406
1059.721, 3232.750
1060.203, 3215.406
1060.685, 3146.125
1061.168, 2887.062
1061.650, 2369.875
1062.132, 1837.219
1062.614, 1452.781
1063.096, 1205.125
1063.578, 1107.688
1064.060, 1122.656
1064.542, 1088.469
1065.025, 864.8438
1065.507, 659.4375
1065.989, 602.1875
1066.471, 596.6250
1066.953, 454.9688
1067.435, 163.9062
1067.917, 69.71875
1068.399, 249.7188
1068.881, 439.0312
1069.364, 290.4062
1069.846, 82.15625
1070.328, 101.4688
1070.810, 394.3438
1071.292, 694.7500
1071.774, 1010.906
1072.256, 1260.625
1072.738, 1398.500
1073.220, 1441.000
1073.703, 1395.719
1074.185, 1284.094
1074.667, 1168.438
1075.149, 1106.156
1075.631, 980.5625
1076.113, 730.2500
1076.595, 446.2188
1077.077, 186.8750
1077.559, 36.84375
1078.042, 85.59375
1078.524, 41.68750
1079.006, 87.81250
1079.488, 253.2188
1079.970, 605.6250
1080.452, 649.5938
1080.934, 480.0938
1081.416, 528.5000
1081.899, 910.0938
1082.381, 1035.344
1082.863, 766.8438
1083.345, 349.0312
1083.827, 36.12500
1084.309, 195.4062
1084.791, 363.3125
1085.273, 444.3125
1085.755, 610.4688
1086.238, 1026.812
1086.720, 1282.469
1087.202, 1138.438
1087.684, 751.7188
1088.166, 611.1562
1088.648, 669.3438
1089.130, 728.7188
1089.612, 720.9688
1090.094, 722.5625
1090.577, 744.2812
1091.059, 783.1562
1091.541, 874.5938
1092.023, 1032.594
1092.505, 1155.406
1092.987, 1240.188
1093.469, 1296.406
1093.951, 1272.250
1094.434, 1262.219
1094.916, 1360.406
1095.398, 1536.781
1095.880, 1676.812
1096.362, 1753.969
1096.844, 1845.844
1097.326, 1977.406
1097.808, 2083.094
1098.291, 2033.750
1098.773, 1921.000
1099.255, 1906.750
1099.737, 2022.438
1100.219, 2151.125
1100.701, 2358.031
1101.183, 2449.125
1101.665, 2305.219
1102.147, 2030.688
1102.630, 1958.406
1103.112, 2046.156
1103.594, 2137.188
1104.076, 2191.688
1104.558, 2187.000
1105.040, 2012.812
1105.522, 1836.500
1106.004, 1795.688
1106.486, 1891.938
1106.969, 2151.000
1107.451, 2571.562
1107.933, 2792.219
1108.415, 2309.594
1108.897, 1724.188
1109.379, 1593.031
1109.861, 1751.812
1110.343, 1730.906
1110.826, 1428.625
1111.308, 1246.531
1111.790, 1263.938
1112.272, 1288.500
1112.754, 1029.156
1113.236, 689.9688
1113.718, 574.9375
1114.200, 699.4375
1114.682, 845.6250
1115.165, 981.6250
1115.647, 1084.562
1116.129, 1118.000
1116.611, 1135.031
1117.093, 1341.531
1117.575, 1617.094
1118.057, 1590.469
1118.539, 1069.688
1119.021, 633.2812
1119.504, 703.9375
1119.986, 755.4062
1120.468, 424.0938
1120.950, 207.6250
1121.432, 415.0312
1121.914, 232.0312
1122.396, 18.34375
1122.878, 59.62500
1123.361, 121.8438
1123.843, 266.7500
1124.325, 432.0312
1124.807, 524.0000
1125.289, 511.1875
1125.771, 506.4688
1126.253, 503.7500
1126.735, 701.7188
1127.218, 1457.438
1127.700, 2301.562
1128.182, 2752.750
1128.664, 2881.844
1129.146, 3049.250
1129.628, 3279.219
1130.110, 3519.812
1130.592, 3776.594
1131.074, 3960.125
1131.557, 3897.594
1132.039, 3716.625
1132.521, 3640.219
1133.003, 3697.719
1133.485, 3717.594
1133.967, 3754.469
1134.449, 3621.250
1134.931, 3203.656
1135.413, 2664.344
1135.896, 2366.531
1136.378, 2275.375
1136.860, 2278.375
1137.342, 2396.594
1137.824, 2355.812
1138.306, 1886.000
1138.788, 1438.844
1139.270, 1217.562
1139.752, 1176.656
1140.235, 1246.812
1140.717, 1422.938
1141.199, 1604.250
1141.681, 1720.000
1142.163, 1800.781
1142.645, 1927.094
1143.127, 1957.656
1143.609, 1705.781
1144.092, 1134.344
1144.574, 780.5000
1145.056, 663.9375
1145.538, 561.2500
1146.020, 324.2188
1146.502, 57.68750
1146.984, 213.1562
1147.466, 416.7500
1147.948, 388.1562
1148.431, 51.09375
1148.913, 183.2812
1149.395, 255.0625
1149.877, 288.9688
1150.359, 377.7500
1150.841, 499.6562
1151.323, 610.0000
1151.805, 703.5938
1152.287, 901.2500
1152.770, 1251.531
1153.252, 1499.375
1153.734, 1538.438
1154.216, 1534.781
1154.698, 1793.500
1155.180, 2154.969
1155.662, 2364.750
1156.144, 2361.156
1156.627, 2367.656
1157.109, 2478.250
1157.591, 2490.031
1158.073, 2272.156
1158.555, 1963.406
1159.037, 1853.312
1159.519, 1896.156
1160.001, 2005.906
1160.484, 2297.594
1160.966, 2292.625
1161.448, 1663.938
1161.930, 1045.688
1162.412, 900.0938
1162.894, 1099.094
1163.376, 1127.375
1163.858, 992.1875
1164.340, 722.8125
1164.823, 47.09375
1165.305, 363.5000
1165.787, 81.71875
1166.269, 349.7500
1166.751, 333.5312
1167.233, 53.87500
1167.715, 126.5000
1168.197, 123.5625
1168.679, 339.4688
1169.162, 197.3125
1169.644, 78.90625
1170.126, 146.8125
1170.608, 352.0312
1171.090, 675.3125
1171.572, 1097.531
1172.054, 1345.375
1172.536, 1359.750
1173.019, 1475.000
1173.501, 2134.031
1173.983, 2795.188
1174.465, 3059.312
1174.947, 3016.625
1175.429, 2965.469
1175.911, 2908.688
1176.393, 2843.312
1176.875, 2765.781
1177.358, 2727.656
1177.840, 2823.125
1178.322, 2947.844
1178.804, 2978.125
1179.286, 2931.188
1179.768, 2924.125
1180.250, 2955.719
1180.732, 3066.906
1181.214, 3317.000
1181.697, 3541.562
1182.179, 3444.469
1182.661, 3279.469
1183.143, 3406.000
1183.625, 3925.344
1184.107, 4217.906
1184.589, 4262.375
1185.071, 4185.438
1185.554, 3971.156
1186.036, 3770.812
1186.518, 3901.062
1187.000, 4135.531
1187.482, 4053.688
1187.964, 3357.125
1188.446, 3075.906
1188.928, 3304.312
1189.411, 3547.938
1189.893, 3409.688
1190.375, 3120.344
1190.857, 3019.500
1191.339, 3025.688
1191.821, 2910.188
1192.303, 2500.656
1192.785, 2274.375
1193.267, 2284.688
1193.750, 2364.469
1194.232, 2313.594
1194.714, 2255.469
1195.196, 2458.406
1195.678, 2841.906
1196.160, 3004.344
1196.642, 2724.938
1197.124, 2503.531
1197.606, 2390.844
1198.089, 2370.844
1198.571, 2478.562
1199.053, 2640.438
1199.535, 2756.531
1200.017, 2817.656
1200.499, 2817.969
1200.981, 2727.562
1201.463, 2643.469
1201.945, 2577.156
1202.428, 2549.531
1202.910, 2619.406
1203.392, 2737.594
1203.874, 2824.812
1204.356, 2869.500
1204.838, 2883.125
1205.320, 2811.344
1205.802, 2831.500
1206.285, 3036.500
1206.767, 3310.125
1207.249, 3441.719
1207.731, 3492.312
1208.213, 3561.438
1208.695, 3645.812
1209.177, 3921.375
1209.659, 4588.250
1210.141, 5031.750
1210.624, 4907.375
1211.106, 4523.969
1211.588, 4551.812
1212.070, 4791.875
1212.552, 4806.562
1213.034, 4339.219
1213.516, 4085.031
1213.998, 4205.188
1214.480, 4349.094
1214.963, 4317.844
1215.445, 4188.094
1215.927, 4174.531
1216.409, 4208.375
1216.891, 4120.906
1217.373, 3775.688
1217.855, 3495.406
1218.337, 3288.438
1218.820, 3203.906
1219.302, 3387.156
1219.784, 3668.406
1220.266, 3576.969
1220.748, 3241.156
1221.230, 2993.469
1221.712, 3022.969
1222.194, 3023.031
1222.677, 2944.844
1223.159, 2871.469
1223.641, 2896.250
1224.123, 2994.500
1224.605, 3161.938
1225.087, 3370.000
1225.569, 3538.625
1226.051, 3552.906
1226.533, 3685.156
1227.016, 4007.125
1227.498, 4322.188
1227.980, 4431.188
1228.462, 4399.750
1228.944, 4277.906
1229.426, 4110.875
1229.908, 4080.594
1230.390, 4401.719
1230.872, 4570.375
1231.355, 4516.719
1231.837, 4393.938
1232.319, 4382.812
1232.801, 4434.406
1233.283, 4464.438
1233.765, 4474.344
1234.247, 4516.844
1234.729, 4558.000
1235.212, 4732.688
1235.694, 5114.250
1236.176, 5453.688
1236.658, 5359.594
1237.140, 5066.031
1237.622, 4902.875
1238.104, 4884.938
1238.586, 4807.500
1239.068, 4606.750
1239.551, 4504.469
1240.033, 4581.500
1240.515, 4687.469
1240.997, 4541.188
1241.479, 4385.812
1241.961, 4660.344
1242.443, 5380.281
1242.925, 5583.969
1243.407, 5089.344
1243.890, 4688.344
1244.372, 4588.375
1244.854, 4624.281
1245.336, 4582.281
1245.818, 4555.688
1246.300, 4658.750
1246.782, 4895.594
1247.264, 5113.344
1247.747, 5312.719
1248.229, 5398.844
1248.711, 5341.062
1249.193, 5152.219
1249.675, 4747.656
1250.157, 4297.281
1250.639, 4023.750
1251.121, 3940.938
1251.604, 3734.562
1252.086, 3413.969
1252.568, 3034.625
1253.050, 2590.750
1253.532, 2211.688
1254.014, 2011.906
1254.496, 1947.875
1254.978, 1991.312
1255.460, 2122.438
1255.943, 2268.438
1256.425, 2418.000
1256.907, 2533.719
1257.389, 2583.156
1257.871, 2608.031
1258.353, 2597.938
1258.835, 2597.312
1259.317, 2693.938
1259.799, 2856.781
1260.281, 2665.812
1260.764, 2166.406
1261.246, 1703.344
1261.728, 1451.906
1262.210, 1212.812
1262.692, 897.0625
1263.174, 563.0000
1263.656, 247.1250
1264.138, 31.87500
1264.621, 195.4688
1265.103, 251.8750
1265.585, 279.5938
1266.067, 333.5312
1266.549, 303.3750
1267.031, 250.4375
1267.513, 20.59375
1267.995, 742.8750
1268.478, 1747.656
1268.960, 2405.188
1269.442, 2780.438
1269.924, 3106.375
1270.406, 3424.656
1270.888, 3745.062
1271.370, 4075.156
1271.852, 4345.031
1272.334, 4483.531
1272.817, 4523.469
1273.299, 4547.531
1273.781, 4557.312
1274.263, 4568.250
1274.745, 4631.281
1275.227, 4629.781
1275.709, 4558.812
1276.191, 4373.656
1276.673, 3964.938
1277.156, 3387.188
1277.638, 2661.031
1278.120, 1991.156
1278.602, 1631.969
1279.084, 1344.000
1279.566, 1132.250
1280.048, 1006.375
1280.530, 912.6875
1281.013, 767.3125
1281.495, 665.9688
1281.977, 777.3750
1282.459, 971.0312
1282.941, 1052.781
1283.423, 1045.906
1283.905, 865.0000
1284.387, 472.2500
1284.870, 129.9062
1285.352, 64.31250
1285.834, 129.3125
1286.316, 282.5625
1286.798, 390.3438
1287.280, 294.5312
1287.762, 5.093750
1288.244, 0.0000000E+00
##END=



