##NAMES=Metarossite
##RRUFFID=R100065
##IDEAL CHEMISTRY=CaV^5+^_2_O_6_&#183;2H_2_O
##LOCALITY=Blue Cap mine, San Juan County, Utah, USA
##OWNER=RRUFF
##SOURCE=Bob Jenkins
##DESCRIPTION=Pale yellow bladed crystals
##STATUS=The identification of this mineral has been confirmed by single-crystal X-ray diffraction.
##URL=rruff.info/R100065
90.49219, 0.0000000E+00
90.97430, 0.4556810
91.45642, 1.275505
91.93854, 9.149605
92.42065, 19.98199
92.90277, 27.88367
93.38489, 32.14538
93.86700, 36.52031
94.34912, 45.04359
94.83124, 56.98366
95.31335, 68.83341
95.79547, 78.79565
96.27759, 88.16123
96.75970, 98.91838
97.24182, 110.6678
97.72394, 122.4116
98.20605, 132.5164
98.68817, 140.9155
99.17029, 149.4797
99.65240, 160.5671
100.1345, 174.7370
100.6166, 190.6497
101.0988, 208.1894
101.5809, 226.7988
102.0630, 245.6848
102.5451, 262.5753
103.0272, 276.0185
103.5093, 287.0303
103.9915, 295.6009
104.4736, 302.4932
104.9557, 308.4576
105.4378, 313.8134
105.9199, 320.2600
106.4020, 329.5899
106.8842, 340.2583
107.3663, 349.1904
107.8484, 355.4417
108.3305, 365.8309
108.8126, 382.0214
109.2947, 412.0193
109.7769, 445.1640
110.2590, 477.6990
110.7411, 510.5889
111.2232, 545.6064
111.7053, 579.9392
112.1874, 611.5169
112.6696, 640.3098
113.1517, 661.8445
113.6338, 674.0893
114.1159, 674.0517
114.5980, 658.7147
115.0801, 633.6623
115.5623, 605.4701
116.0444, 576.6230
116.5265, 548.6620
117.0086, 522.6537
117.4907, 497.0172
117.9728, 471.2697
118.4550, 445.3999
118.9371, 419.4161
119.4192, 393.4317
119.9013, 367.5450
120.3834, 341.6469
120.8655, 315.1432
121.3477, 288.9218
121.8298, 263.5652
122.3119, 239.1138
122.7940, 215.4481
123.2761, 193.1000
123.7582, 171.5102
124.2404, 149.4506
124.7225, 124.6654
125.2046, 99.58290
125.6867, 77.66826
126.1688, 60.35055
126.6509, 43.97647
127.1331, 23.78326
127.6152, 0.5859680
128.0973, 21.53963
128.5794, 39.24689
129.0615, 53.80784
129.5436, 68.23087
130.0258, 83.22015
130.5079, 98.33458
130.9900, 113.0867
131.4721, 127.5495
131.9542, 140.4557
132.4363, 150.2380
132.9185, 157.2225
133.4006, 163.8092
133.8827, 171.3018
134.3648, 178.8838
134.8469, 182.8422
135.3290, 183.2330
135.8112, 179.6539
136.2933, 172.7885
136.7754, 162.7463
137.2575, 146.2119
137.7396, 120.3166
138.2217, 86.13629
138.7039, 50.66205
139.1860, 12.45856
139.6681, 24.86707
140.1502, 57.93829
140.6323, 87.01666
141.1144, 109.1944
141.5966, 122.9631
142.0787, 127.2626
142.5608, 126.6982
143.0429, 120.3620
143.5250, 109.8071
144.0071, 97.69641
144.4893, 81.98425
144.9714, 67.93036
145.4535, 57.43384
145.9356, 49.62189
146.4177, 47.56909
146.8998, 53.06128
147.3820, 64.57788
147.8641, 76.86194
148.3462, 92.60376
148.8283, 111.7855
149.3104, 138.3376
149.7925, 175.3265
150.2747, 215.4603
150.7568, 257.3081
151.2389, 300.9872
151.7210, 348.5746
152.2031, 401.0031
152.6852, 456.0861
153.1674, 513.2301
153.6495, 572.3352
154.1316, 632.9539
154.6137, 694.9851
155.0958, 758.4265
155.5779, 823.4956
156.0601, 891.6287
156.5422, 960.9600
157.0243, 1028.919
157.5064, 1104.779
157.9885, 1170.274
158.4706, 1221.818
158.9528, 1259.504
159.4349, 1279.840
159.9170, 1279.605
160.3991, 1262.232
160.8812, 1231.702
161.3633, 1183.458
161.8455, 1126.880
162.3276, 1062.419
162.8097, 987.9961
163.2918, 919.8988
163.7739, 862.8435
164.2560, 814.3677
164.7382, 760.1699
165.2203, 713.5625
165.7024, 678.6727
166.1845, 655.4805
166.6666, 645.1691
167.1487, 641.4412
167.6309, 638.9121
168.1130, 640.2010
168.5951, 650.6816
169.0772, 674.8698
169.5593, 708.0872
170.0414, 746.6804
170.5236, 790.6042
171.0057, 838.5444
171.4878, 888.2479
171.9699, 941.6111
172.4520, 1002.835
172.9341, 1073.475
173.4163, 1154.077
173.8984, 1245.438
174.3805, 1349.243
174.8626, 1461.746
175.3447, 1583.226
175.8268, 1713.251
176.3090, 1850.794
176.7911, 1998.533
177.2732, 2151.422
177.7553, 2300.896
178.2374, 2448.374
178.7195, 2588.287
179.2017, 2720.167
179.6838, 2843.891
180.1659, 2942.999
180.6480, 3003.049
181.1301, 3030.021
181.6122, 3038.881
182.0944, 3031.214
182.5765, 3009.662
183.0586, 2973.857
183.5407, 2924.330
184.0228, 2875.156
184.5049, 2832.777
184.9871, 2799.308
185.4692, 2783.928
185.9513, 2788.319
186.4334, 2812.936
186.9155, 2859.625
187.3976, 2928.086
187.8798, 3017.773
188.3619, 3127.355
188.8440, 3257.990
189.3261, 3409.203
189.8082, 3585.002
190.2903, 3782.455
190.7725, 3992.434
191.2546, 4217.807
191.7367, 4456.683
192.2188, 4718.978
192.7009, 5005.711
193.1830, 5284.420
193.6652, 5549.867
194.1473, 5801.657
194.6294, 6021.434
195.1115, 6211.460
195.5936, 6365.065
196.0757, 6476.780
196.5579, 6546.906
197.0400, 6564.844
197.5221, 6515.354
198.0042, 6402.236
198.4863, 6276.343
198.9684, 6137.564
199.4506, 5987.350
199.9327, 5823.719
200.4148, 5643.247
200.8969, 5473.988
201.3790, 5325.248
201.8611, 5197.825
202.3433, 5082.967
202.8254, 4978.224
203.3075, 4889.150
203.7896, 4824.489
204.2717, 4782.846
204.7538, 4768.987
205.2360, 4787.454
205.7181, 4839.898
206.2002, 4908.599
206.6823, 4995.062
207.1644, 5095.702
207.6465, 5210.109
208.1287, 5344.390
208.6108, 5467.214
209.0929, 5567.746
209.5750, 5648.012
210.0571, 5699.163
210.5392, 5725.198
211.0214, 5720.122
211.5035, 5669.808
211.9856, 5571.684
212.4677, 5438.350
212.9498, 5272.046
213.4319, 5070.782
213.9140, 4851.644
214.3962, 4613.165
214.8783, 4356.803
215.3604, 4087.338
215.8425, 3794.781
216.3246, 3506.024
216.8067, 3228.644
217.2889, 2964.575
217.7710, 2712.120
218.2531, 2465.041
218.7352, 2232.993
219.2173, 2034.243
219.6994, 1872.122
220.1816, 1735.655
220.6637, 1617.934
221.1458, 1518.884
221.6279, 1438.515
222.1100, 1378.134
222.5921, 1335.535
223.0743, 1303.527
223.5564, 1281.751
224.0385, 1271.794
224.5206, 1275.611
225.0027, 1297.078
225.4848, 1322.010
225.9670, 1349.150
226.4491, 1379.751
226.9312, 1418.094
227.4133, 1465.554
227.8954, 1518.199
228.3775, 1573.908
228.8597, 1636.523
229.3418, 1694.600
229.8239, 1746.032
230.3060, 1793.347
230.7881, 1842.203
231.2702, 1894.626
231.7524, 1946.195
232.2345, 1993.639
232.7166, 2034.212
233.1987, 2078.689
233.6808, 2128.203
234.1629, 2181.108
234.6451, 2233.521
235.1272, 2281.848
235.6093, 2334.714
236.0914, 2395.928
236.5735, 2466.720
237.0556, 2543.534
237.5378, 2626.889
238.0199, 2716.339
238.5020, 2810.766
238.9841, 2913.932
239.4662, 3018.382
239.9483, 3121.605
240.4305, 3221.982
240.9126, 3323.485
241.3947, 3431.873
241.8768, 3539.538
242.3589, 3627.878
242.8410, 3694.029
243.3232, 3745.001
243.8053, 3783.440
244.2874, 3811.205
244.7695, 3821.425
245.2516, 3811.827
245.7337, 3785.750
246.2159, 3749.184
246.6980, 3695.793
247.1801, 3641.860
247.6622, 3592.648
248.1443, 3547.518
248.6264, 3508.016
249.1086, 3469.970
249.5907, 3439.270
250.0728, 3427.615
250.5549, 3435.045
251.0370, 3461.324
251.5191, 3506.899
252.0013, 3572.188
252.4834, 3654.153
252.9655, 3753.618
253.4476, 3868.238
253.9297, 3994.932
254.4118, 4136.630
254.8940, 4282.131
255.3761, 4427.011
255.8582, 4570.501
256.3403, 4719.677
256.8224, 4877.784
257.3046, 5039.346
257.7867, 5191.614
258.2688, 5332.642
258.7509, 5472.053
259.2330, 5612.027
259.7151, 5754.064
260.1973, 5893.188
260.6794, 6026.539
261.1615, 6157.769
261.6436, 6289.791
262.1257, 6426.524
262.6078, 6557.087
263.0900, 6675.940
263.5721, 6782.692
264.0542, 6888.737
264.5363, 6994.361
265.0184, 7098.665
265.5005, 7202.584
265.9827, 7303.160
266.4648, 7409.731
266.9469, 7522.207
267.4290, 7639.721
267.9111, 7774.288
268.3932, 7927.510
268.8754, 8093.724
269.3575, 8265.902
269.8396, 8444.574
270.3217, 8633.394
270.8038, 8837.978
271.2859, 9058.212
271.7681, 9263.129
272.2502, 9454.566
272.7323, 9626.044
273.2144, 9767.942
273.6965, 9880.989
274.1786, 9964.071
274.6608, 10010.92
275.1429, 10026.21
275.6250, 10044.17
276.1071, 10064.95
276.5892, 10088.04
277.0714, 10112.46
277.5535, 10137.92
278.0356, 10168.72
278.5177, 10211.99
278.9998, 10260.05
279.4819, 10287.85
279.9641, 10300.31
280.4462, 10272.87
280.9283, 10193.04
281.4104, 10062.63
281.8925, 9858.007
282.3746, 9571.942
282.8568, 9212.278
283.3389, 8792.061
283.8210, 8307.769
284.3031, 7790.439
284.7852, 7246.569
285.2673, 6682.744
285.7495, 6131.351
286.2316, 5592.259
286.7137, 5073.450
287.1958, 4590.182
287.6779, 4142.459
288.1600, 3729.034
288.6422, 3349.406
289.1243, 3000.685
289.6064, 2690.248
290.0885, 2417.287
290.5706, 2174.305
291.0527, 1950.701
291.5349, 1746.596
292.0170, 1562.195
292.4991, 1402.077
292.9812, 1262.692
293.4633, 1139.307
293.9454, 1032.021
294.4276, 935.1797
294.9097, 841.8315
295.3918, 752.7329
295.8739, 674.2072
296.3560, 614.1774
296.8381, 566.6768
297.3203, 519.5717
297.8024, 472.5608
298.2845, 428.2419
298.7666, 389.2424
299.2487, 355.5833
299.7308, 325.8112
300.2130, 300.5742
300.6951, 278.4429
301.1772, 256.8472
301.6593, 235.9397
302.1414, 216.1929
302.6235, 198.1263
303.1057, 181.7491
303.5878, 167.9171
304.0699, 157.7252
304.5520, 149.1975
305.0341, 140.3156
305.5162, 131.1586
305.9984, 121.4015
306.4805, 109.6429
306.9626, 97.58704
307.4447, 88.31580
307.9268, 83.83972
308.4089, 80.33813
308.8911, 74.61609
309.3732, 66.95703
309.8553, 58.58118
310.3374, 49.35254
310.8195, 40.08508
311.3016, 32.01782
311.7838, 25.97498
312.2659, 20.01355
312.7480, 12.87659
313.2301, 5.104248
313.7122, 2.398682
314.1943, 8.190674
314.6765, 14.38110
315.1586, 23.05225
315.6407, 35.35498
316.1228, 46.83459
316.6049, 54.29712
317.0870, 59.59534
317.5692, 65.47375
318.0513, 73.30457
318.5334, 81.84412
319.0155, 90.64880
319.4976, 99.98071
319.9797, 108.9935
320.4619, 119.1533
320.9440, 128.4369
321.4261, 134.3085
321.9082, 132.5553
322.3903, 131.0081
322.8724, 132.4498
323.3546, 137.0718
323.8367, 141.1802
324.3188, 144.2845
324.8009, 146.4608
325.2830, 147.5997
325.7651, 147.6015
326.2473, 146.7628
326.7294, 144.7208
327.2115, 141.6353
327.6936, 138.8445
328.1757, 138.2614
328.6578, 136.5471
329.1400, 132.0242
329.6221, 121.5604
330.1042, 112.4850
330.5863, 106.1111
331.0684, 101.2093
331.5505, 94.10748
332.0327, 83.90442
332.5148, 72.62396
332.9969, 61.13086
333.4790, 50.09460
333.9611, 37.06195
334.4432, 21.05817
334.9254, 3.492432
335.4075, 12.85724
335.8896, 26.93341
336.3717, 42.05273
336.8538, 59.42133
337.3359, 79.37878
337.8180, 98.61261
338.3001, 116.2964
338.7823, 134.4356
339.2644, 155.2257
339.7465, 179.0885
340.2286, 203.9795
340.7107, 229.5782
341.1928, 255.8948
341.6750, 280.8538
342.1571, 304.2511
342.6392, 328.2493
343.1213, 355.3904
343.6034, 385.5419
344.0855, 415.2815
344.5677, 443.5168
345.0498, 471.2965
345.5319, 500.9225
346.0140, 532.4563
346.4961, 564.0656
346.9782, 594.2802
347.4604, 623.6068
347.9425, 653.4479
348.4246, 684.3685
348.9067, 715.3431
349.3888, 745.1826
349.8709, 773.9557
350.3531, 801.9562
350.8352, 828.9635
351.3173, 855.3208
351.7994, 882.5598
352.2815, 910.8099
352.7636, 937.7882
353.2458, 961.4775
353.7279, 982.2483
354.2100, 1000.890
354.6921, 1017.540
355.1742, 1032.254
355.6563, 1046.195
356.1385, 1058.990
356.6206, 1067.518
357.1027, 1067.990
357.5848, 1063.575
358.0669, 1057.979
358.5490, 1052.694
359.0312, 1045.716
359.5133, 1035.284
359.9954, 1021.954
360.4775, 1007.310
360.9596, 992.5253
361.4417, 976.4310
361.9239, 958.0266
362.4060, 937.0370
362.8881, 914.1212
363.3702, 888.8150
363.8523, 861.8785
364.3344, 834.4775
364.8166, 804.5167
365.2987, 776.0676
365.7808, 752.0605
366.2629, 732.9059
366.7450, 713.0706
367.2271, 691.2074
367.7093, 668.5605
368.1914, 646.2256
368.6735, 623.4388
369.1556, 601.7532
369.6377, 581.2698
370.1198, 561.9594
370.6020, 545.7132
371.0841, 534.3058
371.5662, 524.1505
372.0483, 513.4998
372.5304, 501.6675
373.0125, 490.1273
373.4947, 478.6683
373.9768, 467.3743
374.4589, 456.5880
374.9410, 446.4337
375.4231, 436.5847
375.9052, 426.6910
376.3874, 416.5771
376.8695, 406.7617
377.3516, 396.8850
377.8337, 387.5703
378.3158, 379.6808
378.7979, 373.5314
379.2801, 366.9122
379.7622, 358.8057
380.2443, 350.2254
380.7264, 346.5355
381.2085, 348.1855
381.6906, 349.9716
382.1728, 346.6384
382.6549, 339.2172
383.1370, 333.8588
383.6191, 332.2318
384.1012, 332.2921
384.5833, 331.7258
385.0655, 330.4062
385.5476, 326.9182
386.0297, 319.7690
386.5118, 310.0955
386.9939, 300.2977
387.4760, 291.0935
387.9582, 280.8583
388.4403, 268.0786
388.9224, 252.8993
389.4045, 236.0449
389.8866, 217.1052
390.3687, 197.3890
390.8509, 177.6462
391.3330, 157.9908
391.8151, 139.2885
392.2972, 121.2097
392.7793, 105.1542
393.2614, 92.29541
393.7436, 83.57666
394.2257, 76.87299
394.7078, 71.51050
395.1899, 67.63184
395.6720, 65.40405
396.1541, 64.44299
396.6363, 65.21417
397.1184, 67.90924
397.6005, 72.42969
398.0826, 79.13287
398.5647, 88.47321
399.0468, 99.59308
399.5290, 111.6803
400.0111, 122.9272
400.4932, 137.0834
400.9753, 155.2097
401.4574, 177.3857
401.9395, 200.5751
402.4217, 224.7317
402.9038, 250.1217
403.3859, 276.6902
403.8680, 303.5206
404.3501, 333.8621
404.8322, 367.8978
405.3144, 405.4744
405.7965, 445.5308
406.2786, 488.7766
406.7607, 532.8037
407.2428, 575.9149
407.7249, 618.1658
408.2071, 664.3303
408.6892, 715.3873
409.1713, 768.1684
409.6534, 818.3256
410.1355, 865.8795
410.6176, 915.2090
411.0998, 968.0349
411.5819, 1023.593
412.0640, 1080.110
412.5461, 1137.163
413.0282, 1196.465
413.5103, 1258.252
413.9925, 1322.510
414.4746, 1390.253
414.9567, 1462.220
415.4388, 1536.427
415.9209, 1612.266
416.4030, 1689.202
416.8852, 1768.126
417.3673, 1849.550
417.8494, 1931.875
418.3315, 2015.948
418.8136, 2101.110
419.2957, 2183.673
419.7779, 2264.654
420.2600, 2340.044
420.7421, 2404.519
421.2242, 2460.504
421.7063, 2502.119
422.1884, 2530.233
422.6706, 2543.611
423.1527, 2538.694
423.6348, 2512.653
424.1169, 2469.805
424.5990, 2411.571
425.0811, 2337.900
425.5633, 2249.490
426.0454, 2140.156
426.5275, 2019.416
427.0096, 1897.208
427.4917, 1773.025
427.9738, 1649.123
428.4560, 1524.417
428.9381, 1398.334
429.4202, 1281.651
429.9023, 1176.011
430.3844, 1079.149
430.8665, 991.6596
431.3487, 914.2712
431.8308, 841.4348
432.3129, 772.2982
432.7950, 708.0060
433.2771, 652.6055
433.7592, 606.7078
434.2414, 566.7686
434.7235, 532.5978
435.2056, 503.3354
435.6877, 474.9943
436.1698, 447.4392
436.6519, 423.3629
437.1341, 407.6171
437.6162, 397.7944
438.0983, 386.9062
438.5804, 371.4332
439.0625, 356.7446
439.5446, 349.3906
440.0268, 348.1107
440.5089, 348.3633
440.9910, 348.4622
441.4731, 348.3699
441.9552, 347.8213
442.4373, 346.6124
442.9195, 346.0431
443.4016, 347.2645
443.8837, 349.3171
444.3658, 351.0532
444.8479, 350.3999
445.3300, 351.1521
445.8122, 355.1259
446.2943, 362.0291
446.7764, 369.0604
447.2585, 375.7831
447.7406, 382.5463
448.2227, 389.7191
448.7049, 398.5814
449.1870, 405.2194
449.6691, 408.8732
450.1512, 410.5498
450.6333, 411.8524
451.1154, 413.0056
451.5976, 413.3031
452.0797, 412.2136
452.5618, 409.8903
453.0439, 408.7021
453.5260, 408.8198
454.0081, 409.7275
454.4903, 411.3756
454.9724, 413.7712
455.4545, 415.5705
455.9366, 416.4349
456.4187, 417.0974
456.9008, 418.5591
457.3830, 420.7683
457.8651, 423.6923
458.3472, 427.4045
458.8293, 431.7947
459.3114, 436.6907
459.7935, 442.0636
460.2757, 448.1467
460.7578, 454.4771
461.2399, 461.7808
461.7220, 471.0829
462.2041, 483.0837
462.6862, 496.5602
463.1684, 510.7126
463.6505, 525.7940
464.1326, 542.1003
464.6147, 560.2770
465.0968, 579.3610
465.5789, 598.5032
466.0611, 617.5712
466.5432, 637.3860
467.0253, 658.0648
467.5074, 679.4187
467.9895, 701.1897
468.4716, 722.8531
468.9538, 746.1281
469.4359, 772.7576
469.9180, 800.8678
470.4001, 824.5109
470.8822, 842.5381
471.3643, 857.9443
471.8465, 872.5249
472.3286, 886.7780
472.8107, 894.9875
473.2928, 896.4937
473.7749, 893.5759
474.2570, 889.0992
474.7392, 883.0554
475.2213, 872.4630
475.7034, 857.1066
476.1855, 836.3196
476.6676, 806.7882
477.1497, 769.0739
477.6319, 730.2296
478.1140, 695.2392
478.5961, 661.2274
479.0782, 623.0495
479.5603, 580.1744
480.0424, 535.6520
480.5246, 489.0065
481.0067, 443.0102
481.4888, 401.5688
481.9709, 368.1389
482.4530, 336.5237
482.9352, 303.0834
483.4173, 268.7974
483.8994, 236.7596
484.3815, 207.6689
484.8636, 181.2602
485.3457, 157.6926
485.8279, 137.2429
486.3100, 117.9716
486.7921, 98.87592
487.2742, 81.41479
487.7563, 66.89374
488.2384, 57.35455
488.7206, 47.07428
489.2027, 34.76617
489.6848, 21.36639
490.1669, 10.50439
490.6490, 2.798767
491.1311, 3.927368
491.6133, 10.81079
492.0954, 17.86029
492.5775, 22.89447
493.0596, 25.63483
493.5417, 27.37085
494.0238, 29.69653
494.5060, 32.32477
494.9881, 33.67560
495.4702, 32.83752
495.9523, 31.32275
496.4344, 31.63574
496.9165, 33.23950
497.3987, 34.10382
497.8808, 32.73083
498.3629, 30.32788
498.8450, 28.01691
499.3271, 25.89264
499.8092, 23.59119
500.2914, 21.11346
500.7735, 18.27869
501.2556, 14.89325
501.7377, 10.89313
502.2198, 6.388489
502.7019, 0.7097170
503.1841, 5.508362
503.6662, 10.55249
504.1483, 12.27032
504.6304, 15.00763
505.1125, 20.11688
505.5946, 27.75629
506.0768, 35.69604
506.5589, 44.09851
507.0410, 52.51233
507.5231, 60.20343
508.0052, 66.77271
508.4873, 75.41260
508.9695, 86.95374
509.4516, 99.76068
509.9337, 110.3764
510.4158, 118.9427
510.8979, 128.1094
511.3800, 139.3008
511.8622, 151.8626
512.3443, 164.0557
512.8264, 175.8835
513.3085, 189.1461
513.7906, 206.2862
514.2728, 225.2378
514.7549, 242.9744
515.2370, 258.1560
515.7191, 274.4263
516.2012, 294.3331
516.6833, 316.6984
517.1655, 340.0038
517.6476, 364.5734
518.1297, 389.1801
518.6118, 412.6289
519.0939, 435.2147
519.5760, 460.3030
520.0582, 490.2665
520.5403, 520.9767
521.0224, 550.0793
521.5045, 576.2314
521.9866, 605.1749
522.4688, 637.6148
522.9509, 672.0797
523.4330, 707.2924
523.9151, 743.2224
524.3972, 780.2945
524.8793, 818.7538
525.3615, 857.7880
525.8436, 895.2126
526.3257, 931.2248
526.8078, 968.4993
527.2899, 1010.691
527.7720, 1055.403
528.2542, 1096.395
528.7363, 1133.194
529.2184, 1168.879
529.7005, 1205.105
530.1826, 1241.635
530.6647, 1278.436
531.1469, 1316.993
531.6290, 1352.791
532.1111, 1383.445
532.5932, 1409.191
533.0753, 1430.460
533.5574, 1447.653
534.0396, 1460.402
534.5217, 1468.708
535.0038, 1472.424
535.4859, 1471.746
535.9680, 1468.119
536.4501, 1458.745
536.9323, 1441.610
537.4144, 1414.152
537.8965, 1385.760
538.3786, 1357.384
538.8607, 1327.038
539.3428, 1292.179
539.8250, 1252.353
540.3071, 1210.016
540.7892, 1165.220
541.2713, 1119.323
541.7534, 1078.114
542.2355, 1041.138
542.7177, 1003.918
543.1998, 960.0396
543.6819, 914.9123
544.1640, 878.0403
544.6461, 850.3021
545.1282, 824.5630
545.6104, 796.4528
546.0925, 767.6772
546.5746, 740.0784
547.0567, 713.2308
547.5388, 688.9998
548.0209, 669.6025
548.5031, 653.4117
548.9852, 636.3299
549.4673, 615.0489
549.9494, 595.4792
550.4315, 579.5560
550.9136, 567.3346
551.3958, 554.7948
551.8779, 541.4903
552.3600, 528.4996
552.8421, 516.7197
553.3242, 506.4396
553.8063, 495.6360
554.2885, 483.6858
554.7706, 471.9981
555.2527, 463.7123
555.7348, 458.2329
556.2169, 450.6372
556.6990, 438.7329
557.1812, 424.9753
557.6633, 412.4593
558.1454, 401.0641
558.6275, 390.2813
559.1096, 379.9584
559.5917, 370.2374
560.0739, 361.6837
560.5560, 354.2324
561.0381, 346.3052
561.5202, 337.0585
562.0023, 327.3304
562.4844, 317.7935
562.9666, 308.6174
563.4487, 299.4441
563.9308, 289.6628
564.4129, 280.0866
564.8950, 272.2754
565.3771, 267.6715
565.8593, 261.6093
566.3414, 252.4478
566.8235, 241.1767
567.3056, 231.8600
567.7877, 224.6818
568.2698, 218.0047
568.7520, 210.7099
569.2341, 203.1633
569.7162, 196.3915
570.1983, 190.5850
570.6804, 184.8047
571.1625, 177.7780
571.6447, 170.2331
572.1268, 163.5529
572.6089, 158.4467
573.0910, 153.5832
573.5731, 147.6488
574.0552, 141.2903
574.5374, 135.5505
575.0195, 131.4576
575.5016, 127.6295
575.9837, 124.0442
576.4658, 120.5760
576.9479, 115.7446
577.4301, 107.4695
577.9122, 100.2771
578.3943, 96.52734
578.8764, 97.21411
579.3585, 96.34140
579.8406, 93.62820
580.3228, 89.89569
580.8049, 85.41110
581.2870, 80.28979
581.7691, 76.77023
582.2512, 75.67081
582.7333, 75.34344
583.2155, 73.30710
583.6975, 70.02298
584.1796, 66.75504
584.6617, 64.13541
585.1439, 61.77063
585.6260, 59.21271
586.1081, 56.50333
586.5902, 54.03830
587.0723, 52.63681
587.5544, 51.15628
588.0366, 48.53772
588.5187, 44.06970
589.0008, 41.14621
589.4829, 41.97778
589.9650, 43.32236
590.4471, 42.69678
590.9293, 39.06219
591.4114, 35.79312
591.8935, 32.93573
592.3756, 30.69077
592.8577, 29.85376
593.3398, 30.56439
593.8220, 30.35043
594.3041, 27.91574
594.7862, 24.42087
595.2683, 22.83212
595.7504, 22.90240
596.2325, 22.73352
596.7147, 20.87982
597.1968, 18.28204
597.6789, 15.77130
598.1610, 13.40292
598.6431, 11.68124
599.1252, 11.53668
599.6074, 11.80032
600.0895, 11.47177
600.5716, 9.820618
601.0537, 8.540497
601.5358, 7.912720
602.0179, 7.786835
602.5001, 8.108673
602.9822, 9.566101
603.4643, 10.00629
603.9464, 8.699554
604.4285, 6.276306
604.9106, 4.840637
605.3928, 4.486908
605.8749, 4.278320
606.3570, 3.735657
606.8391, 2.980713
607.3212, 2.356567
607.8033, 1.865051
608.2855, 1.626648
608.7676, 2.310364
609.2497, 3.053864
609.7318, 2.484711
610.2139, 9.1370001E-02
610.6960, 2.035339
611.1782, 2.616455
611.6603, 2.396362
612.1424, 2.157654
612.6245, 1.465454
613.1066, 1.515808
613.5887, 3.249908
614.0709, 5.665955
614.5530, 6.615479
615.0351, 5.178528
615.5172, 4.253510
615.9993, 4.706818
616.4814, 6.296051
616.9636, 7.952332
617.4457, 9.747803
617.9278, 10.81012
618.4099, 9.938599
618.8920, 7.964691
619.3741, 7.224792
619.8563, 7.797363
620.3384, 8.693298
620.8205, 9.269714
621.3026, 9.628876
621.7847, 9.909424
622.2668, 10.16150
622.7490, 10.24503
623.2311, 9.725464
623.7132, 9.121368
624.1953, 9.094910
624.6774, 10.86603
625.1595, 11.82294
625.6417, 11.09070
626.1238, 9.426727
626.6059, 9.003571
627.0880, 10.01959
627.5701, 11.69760
628.0522, 14.26056
628.5344, 17.24939
629.0165, 17.91165
629.4986, 16.19269
629.9807, 14.49557
630.4628, 15.22180
630.9449, 16.96524
631.4271, 16.69266
631.9092, 14.10245
632.3913, 11.71378
632.8734, 11.72321
633.3555, 12.69971
633.8376, 13.18063
634.3198, 12.88657
634.8019, 12.02832
635.2840, 9.592163
635.7661, 7.011932
636.2482, 6.297272
636.7303, 9.022400
637.2125, 11.05212
637.6946, 11.78485
638.1767, 11.48862
638.6588, 10.81488
639.1409, 9.699127
639.6230, 8.449524
640.1052, 6.827240
640.5873, 5.221619
641.0694, 5.192810
641.5515, 6.593933
642.0336, 7.976563
642.5157, 8.945770
642.9979, 9.014465
643.4800, 6.986572
643.9621, 2.608978
644.4442, 0.7172850
644.9263, 1.8555000E-02
645.4084, 1.569122
645.8906, 1.480988
646.3727, 1.973022
646.8548, 4.653961
647.3369, 5.559570
647.8190, 6.188751
648.3011, 8.448303
648.7833, 13.12375
649.2654, 16.67218
649.7475, 18.43152
650.2296, 19.00964
650.7117, 19.55817
651.1938, 20.16382
651.6760, 21.17639
652.1581, 22.97717
652.6402, 25.01843
653.1223, 26.19574
653.6044, 26.87579
654.0865, 28.63379
654.5687, 33.39240
655.0508, 38.51086
655.5329, 42.59613
656.0150, 45.50293
656.4971, 47.27557
656.9792, 46.25238
657.4614, 45.60797
657.9435, 46.99402
658.4256, 50.70636
658.9077, 55.41473
659.3898, 61.85913
659.8719, 68.09100
660.3541, 71.59125
660.8362, 72.49585
661.3183, 74.39636
661.8004, 77.66296
662.2825, 81.90204
662.7646, 87.21979
663.2468, 93.24884
663.7289, 98.93750
664.2110, 103.5690
664.6931, 108.1208
665.1752, 112.5912
665.6573, 117.5102
666.1395, 124.2827
666.6216, 135.3754
667.1037, 146.3972
667.5858, 155.3141
668.0679, 162.5267
668.5500, 171.2081
669.0322, 182.0513
669.5143, 193.5413
669.9964, 205.2917
670.4785, 217.2892
670.9606, 228.3447
671.4427, 238.1849
671.9249, 249.0750
672.4070, 263.4962
672.8891, 280.6756
673.3712, 298.4933
673.8533, 316.8558
674.3354, 335.2893
674.8176, 352.3812
675.2997, 370.2611
675.7818, 391.1606
676.2639, 417.5659
676.7460, 444.2128
677.2281, 467.9003
677.7103, 491.4548
678.1924, 518.2328
678.6745, 549.1136
679.1566, 580.5857
679.6387, 611.6429
680.1208, 643.5438
680.6030, 680.3767
681.0851, 721.5203
681.5672, 764.8527
682.0493, 808.5155
682.5314, 854.1431
683.0135, 904.0391
683.4957, 958.2488
683.9778, 1014.511
684.4599, 1071.453
684.9420, 1130.432
685.4241, 1193.796
685.9063, 1260.955
686.3884, 1331.340
686.8705, 1404.712
687.3526, 1480.948
687.8347, 1560.500
688.3168, 1643.319
688.7990, 1728.186
689.2811, 1816.380
689.7632, 1907.419
690.2453, 2000.623
690.7274, 2096.713
691.2095, 2195.974
691.6917, 2298.166
692.1738, 2403.632
692.6559, 2510.396
693.1380, 2618.858
693.6201, 2729.262
694.1022, 2841.993
694.5844, 2954.449
695.0665, 3063.781
695.5486, 3171.354
696.0307, 3279.349
696.5128, 3391.746
696.9949, 3498.049
697.4771, 3594.686
697.9592, 3686.038
698.4413, 3780.877
698.9234, 3883.299
699.4055, 3972.811
699.8876, 4043.959
700.3698, 4099.161
700.8519, 4143.253
701.3340, 4176.373
701.8161, 4197.304
702.2982, 4205.784
702.7803, 4201.500
703.2625, 4182.236
703.7446, 4149.108
704.2267, 4108.344
704.7088, 4064.923
705.1909, 4012.093
705.6730, 3946.321
706.1552, 3866.419
706.6373, 3778.862
707.1194, 3681.335
707.6015, 3579.045
708.0836, 3474.619
708.5657, 3368.284
709.0479, 3262.080
709.5300, 3155.812
710.0121, 3050.339
710.4942, 2944.266
710.9763, 2840.190
711.4584, 2742.200
711.9406, 2651.853
712.4227, 2564.145
712.9048, 2471.810
713.3869, 2381.168
713.8690, 2298.742
714.3511, 2229.674
714.8333, 2163.735
715.3154, 2099.254
715.7975, 2037.928
716.2796, 1981.185
716.7617, 1930.246
717.2438, 1881.884
717.7260, 1836.094
718.2081, 1792.975
718.6902, 1753.442
719.1723, 1717.233
719.6544, 1685.023
720.1365, 1657.482
720.6187, 1633.268
721.1008, 1610.490
721.5829, 1589.656
722.0650, 1571.380
722.5471, 1556.913
723.0292, 1544.188
723.5114, 1532.625
723.9935, 1522.272
724.4756, 1513.427
724.9577, 1506.271
725.4398, 1500.311
725.9219, 1495.379
726.4041, 1491.564
726.8862, 1488.930
727.3683, 1487.309
727.8504, 1488.803
728.3325, 1496.990
728.8146, 1508.431
729.2968, 1514.399
729.7789, 1515.661
730.2610, 1519.267
730.7431, 1531.094
731.2252, 1545.894
731.7073, 1559.925
732.1895, 1572.717
732.6716, 1586.382
733.1537, 1601.953
733.6358, 1617.801
734.1179, 1632.941
734.6000, 1646.786
735.0822, 1663.405
735.5643, 1683.399
736.0464, 1704.348
736.5285, 1724.487
737.0106, 1743.606
737.4927, 1760.830
737.9749, 1776.020
738.4570, 1793.268
738.9391, 1817.234
739.4212, 1843.969
739.9033, 1869.416
740.3854, 1893.020
740.8676, 1915.795
741.3497, 1936.448
741.8318, 1956.888
742.3139, 1979.872
742.7960, 2007.457
743.2781, 2031.683
743.7603, 2050.791
744.2424, 2067.978
744.7245, 2088.632
745.2066, 2112.176
745.6887, 2134.499
746.1708, 2154.884
746.6530, 2173.042
747.1351, 2188.656
747.6172, 2201.709
748.0993, 2212.233
748.5814, 2218.788
749.0635, 2224.550
749.5457, 2232.900
750.0278, 2240.825
750.5099, 2242.048
750.9920, 2234.740
751.4741, 2224.389
751.9562, 2212.233
752.4384, 2197.469
752.9205, 2178.280
753.4026, 2154.710
753.8847, 2128.923
754.3668, 2102.400
754.8489, 2073.753
755.3311, 2041.381
755.8132, 2005.022
756.2953, 1965.170
756.7774, 1920.788
757.2595, 1873.714
757.7416, 1824.115
758.2238, 1772.723
758.7059, 1717.763
759.1880, 1656.977
759.6701, 1597.177
760.1522, 1540.099
760.6343, 1485.579
761.1165, 1429.446
761.5986, 1371.707
762.0807, 1314.343
762.5628, 1259.009
763.0449, 1204.816
763.5270, 1149.113
764.0092, 1092.511
764.4913, 1038.161
764.9734, 990.1614
765.4555, 943.8237
765.9376, 896.2540
766.4197, 846.6580
766.9019, 800.8483
767.3840, 760.6985
767.8661, 721.8903
768.3482, 682.3362
768.8303, 641.9476
769.3124, 606.6445
769.7946, 576.7446
770.2767, 548.4475
770.7588, 519.5753
771.2409, 490.4608
771.7230, 460.7222
772.2051, 430.5590
772.6873, 403.4822
773.1694, 383.8636
773.6515, 366.3160
774.1336, 346.6709
774.6157, 323.8652
775.0978, 303.5002
775.5800, 286.6872
776.0621, 271.0484
776.5442, 255.0887
777.0263, 238.6639
777.5084, 223.9854
777.9905, 211.1046
778.4727, 198.7571
778.9548, 185.0128
779.4369, 171.3534
779.9190, 161.1231
780.4011, 154.9260
780.8832, 147.7847
781.3654, 135.7468
781.8475, 122.5982
782.3296, 110.8793
782.8117, 100.8990
783.2938, 93.17743
783.7759, 88.73059
784.2581, 85.12915
784.7402, 80.87225
785.2223, 75.98920
785.7044, 69.46173
786.1865, 61.07971
786.6686, 53.16754
787.1508, 48.51276
787.6329, 45.59271
788.1150, 41.83960
788.5971, 36.64478
789.0792, 31.88605
789.5613, 28.49884
790.0435, 25.78040
790.5256, 23.09973
791.0077, 20.26129
791.4898, 18.04993
791.9719, 17.08014
792.4540, 15.72485
792.9362, 11.73004
793.4183, 5.445618
793.9004, 2.416443
794.3825, 3.404785
794.8646, 4.390442
795.3467, 0.2975460
795.8289, 5.674438
796.3110, 8.663025
796.7931, 6.922546
797.2752, 6.418640
797.7573, 10.94061
798.2394, 16.50726
798.7216, 19.76645
799.2037, 19.78210
799.6858, 20.08151
800.1679, 20.96283
800.6500, 21.46353
801.1321, 19.98242
801.6143, 17.12805
802.0964, 15.99243
802.5785, 17.01462
803.0606, 18.89114
803.5427, 21.21603
804.0248, 23.38312
804.5070, 24.66113
804.9891, 24.60150
805.4712, 24.62506
805.9533, 25.18661
806.4354, 25.82330
806.9175, 26.20056
807.3997, 26.26080
807.8818, 26.33722
808.3639, 26.50089
808.8460, 26.41718
809.3281, 25.44678
809.8102, 23.98172
810.2924, 23.01599
810.7745, 22.69116
811.2566, 22.76147
811.7387, 23.42566
812.2208, 24.18372
812.7029, 24.56500
813.1851, 24.33231
813.6672, 24.16888
814.1493, 24.04388
814.6314, 24.08395
815.1135, 24.50577
815.5956, 25.34305
816.0778, 25.77805
816.5599, 25.75623
817.0420, 25.53201
817.5241, 25.74954
818.0062, 25.77176
818.4883, 24.14166
818.9705, 20.37030
819.4526, 17.56464
819.9347, 18.82465
820.4168, 20.42065
820.8989, 19.10822
821.3810, 13.51666
821.8632, 10.86920
822.3453, 12.18292
822.8274, 14.19440
823.3095, 14.36578
823.7916, 12.94067
824.2737, 10.85602
824.7559, 8.123718
825.2380, 6.218445
825.7201, 8.177856
826.2022, 10.43646
826.6843, 8.713989
827.1664, 1.936584
827.6486, 3.060181
828.1307, 3.656189
828.6128, 3.065308
829.0949, 2.420837
829.5770, 1.609070
830.0591, 2.542542
830.5413, 5.343323
831.0234, 9.132690
831.5055, 13.88989
831.9876, 18.94739
832.4697, 22.94440
832.9518, 25.84509
833.4340, 28.64374
833.9161, 31.88159
834.3982, 35.16937
834.8803, 38.13489
835.3624, 40.71594
835.8445, 43.85303
836.3267, 47.50751
836.8088, 51.79645
837.2909, 57.06134
837.7730, 63.02045
838.2551, 66.79120
838.7372, 68.68854
839.2194, 73.68158
839.7015, 90.08582
840.1836, 107.4339
840.6657, 113.4767
841.1478, 110.0085
841.6299, 109.1700
842.1121, 115.9963
842.5942, 124.9388
843.0763, 134.3440
843.5584, 144.2634
844.0405, 155.1920
844.5226, 167.2737
845.0048, 179.1763
845.4869, 189.6643
845.9690, 200.1802
846.4511, 213.3833
846.9332, 228.9160
847.4153, 245.4655
847.8975, 261.9417
848.3796, 279.7273
848.8617, 299.4352
849.3438, 321.1241
849.8259, 344.2211
850.3080, 368.4424
850.7902, 394.7555
851.2723, 422.4299
851.7544, 452.7295
852.2365, 488.4561
852.7186, 529.4744
853.2007, 574.7648
853.6829, 623.0078
854.1650, 676.2449
854.6471, 735.3279
855.1292, 801.4191
855.6113, 876.6075
856.0934, 961.2079
856.5756, 1054.635
857.0577, 1156.846
857.5398, 1267.172
858.0219, 1389.018
858.5040, 1523.320
858.9861, 1662.195
859.4683, 1805.432
859.9504, 1952.818
860.4325, 2100.750
860.9146, 2252.433
861.3967, 2410.226
861.8788, 2572.952
862.3610, 2745.911
862.8431, 2923.763
863.3252, 3116.898
863.8073, 3329.847
864.2894, 3563.689
864.7715, 3819.662
865.2537, 4097.354
865.7358, 4397.410
866.2179, 4727.406
866.7000, 5082.300
867.1821, 5453.861
867.6642, 5845.001
868.1464, 6238.193
868.6285, 6642.941
869.1106, 7035.619
869.5927, 7410.241
870.0748, 7775.896
870.5569, 8076.715
871.0391, 8319.054
871.5212, 8484.010
872.0033, 8559.554
872.4854, 8545.759
872.9675, 8432.944
873.4496, 8223.222
873.9318, 7968.416
874.4139, 7665.280
874.8960, 7361.670
875.3781, 7091.307
875.8602, 6855.273
876.3423, 6663.681
876.8245, 6519.677
877.3066, 6425.353
877.7887, 6385.151
878.2708, 6395.120
878.7529, 6439.686
879.2350, 6518.749
879.7172, 6635.450
880.1993, 6792.970
880.6814, 6983.348
881.1635, 7201.761
881.6456, 7444.433
882.1277, 7702.278
882.6099, 7984.782
883.0920, 8267.126
883.5741, 8555.411
884.0562, 8832.817
884.5383, 9087.022
885.0204, 9323.119
885.5026, 9508.625
885.9847, 9641.562
886.4668, 9710.444
886.9489, 9706.196
887.4310, 9624.339
887.9131, 9454.589
888.3953, 9189.646
888.8774, 8853.649
889.3595, 8436.349
889.8416, 7963.840
890.3237, 7456.179
890.8058, 6902.662
891.2880, 6358.113
891.7701, 5820.832
892.2522, 5309.050
892.7343, 4833.880
893.2164, 4393.969
893.6985, 3983.310
894.1807, 3604.919
894.6628, 3260.202
895.1449, 2957.334
895.6270, 2688.774
896.1091, 2450.544
896.5912, 2245.723
897.0734, 2054.666
897.5555, 1878.745
898.0376, 1717.013
898.5197, 1571.261
899.0018, 1439.879
899.4839, 1323.807
899.9661, 1222.009
900.4482, 1128.726
900.9303, 1040.518
901.4124, 958.9990
901.8945, 884.1479
902.3766, 816.4456
902.8588, 755.1116
903.3409, 701.6453
903.8230, 652.9916
904.3051, 608.6752
904.7872, 568.3690
905.2693, 530.9630
905.7515, 496.3745
906.2336, 462.9805
906.7157, 429.8781
907.1978, 399.0812
907.6799, 372.5686
908.1620, 349.3438
908.6442, 327.9603
909.1263, 309.2485
909.6084, 290.7082
910.0905, 271.2923
910.5726, 253.4397
911.0547, 239.1840
911.5369, 228.4077
912.0190, 218.4318
912.5011, 209.0497
912.9832, 202.2249
913.4653, 200.5352
913.9474, 201.5303
914.4296, 202.7288
914.9117, 203.8234
915.3938, 207.2090
915.8759, 212.2601
916.3580, 220.8021
916.8401, 233.3047
917.3223, 249.9085
917.8044, 271.8250
918.2865, 298.8037
918.7686, 329.6921
919.2507, 362.1187
919.7328, 399.6232
920.2150, 446.5969
920.6971, 501.2042
921.1792, 559.9232
921.6613, 625.1216
922.1434, 690.2413
922.6255, 754.4007
923.1077, 818.4868
923.5898, 884.0310
924.0719, 950.5598
924.5540, 1018.053
925.0361, 1085.864
925.5182, 1158.043
926.0004, 1237.660
926.4825, 1325.297
926.9646, 1421.466
927.4467, 1522.856
927.9288, 1644.228
928.4109, 1787.536
928.8931, 1950.245
929.3752, 2132.671
929.8573, 2333.735
930.3394, 2540.897
930.8215, 2752.513
931.3036, 2963.502
931.7858, 3180.577
932.2679, 3386.896
932.7500, 3582.948
933.2321, 3759.395
933.7142, 3878.640
934.1964, 3941.398
934.6785, 3928.487
935.1606, 3824.902
935.6427, 3646.625
936.1248, 3426.347
936.6069, 3166.112
937.0891, 2926.952
937.5712, 2717.380
938.0533, 2549.872
938.5354, 2428.938
939.0175, 2359.075
939.4996, 2349.112
939.9818, 2417.039
940.4639, 2526.521
940.9460, 2678.768
941.4281, 2863.486
941.9102, 3073.569
942.3923, 3307.006
942.8745, 3546.250
943.3566, 3792.170
943.8387, 4040.188
944.3208, 4274.099
944.8029, 4514.041
945.2850, 4776.347
945.7672, 5061.684
946.2493, 5374.201
946.7314, 5700.316
947.2135, 6072.596
947.6956, 6497.924
948.1777, 6984.215
948.6599, 7537.606
949.1420, 8157.570
949.6241, 8832.193
950.1062, 9575.996
950.5883, 10348.95
951.0704, 11157.33
951.5526, 11971.01
952.0347, 12724.25
952.5168, 13477.01
952.9989, 14071.60
953.4810, 14530.32
953.9631, 14760.44
954.4453, 14653.20
954.9274, 14219.92
955.4095, 13455.37
955.8916, 12352.39
956.3737, 11113.56
956.8558, 9734.718
957.3380, 8381.049
957.8201, 7149.251
958.3022, 6042.366
958.7843, 5087.270
959.2664, 4289.657
959.7485, 3619.823
960.2307, 3079.054
960.7128, 2643.844
961.1949, 2278.487
961.6770, 1976.241
962.1591, 1720.455
962.6412, 1513.874
963.1234, 1336.206
963.6055, 1182.035
964.0876, 1049.974
964.5697, 935.4637
965.0518, 841.3058
965.5339, 756.8896
966.0161, 681.2812
966.4982, 612.9391
966.9803, 548.8538
967.4624, 490.5661
967.9445, 443.4653
968.4266, 408.8661
968.9088, 376.0882
969.3909, 339.5467
969.8730, 305.0540
970.3551, 274.8224
970.8372, 249.2428
971.3193, 227.0044
971.8015, 208.3895
972.2836, 190.9028
972.7657, 173.1208
973.2478, 156.1652
973.7299, 141.0989
974.2120, 127.7629
974.6942, 115.5925
975.1763, 101.6971
975.6584, 93.55881
976.1405, 95.99536
976.6226, 100.1141
977.1047, 91.30563
977.5869, 70.89597
978.0690, 54.15411
978.5511, 43.38840
979.0332, 35.87250
979.5153, 30.85474
979.9974, 26.94278
980.4796, 22.89981
980.9617, 18.56476
981.4438, 13.94965
981.9259, 8.673004
982.4080, 3.829376
982.8901, 0.1441350
983.3723, 3.418274
983.8544, 6.529510
984.3365, 9.407257
984.8186, 11.75537
985.3007, 13.21432
985.7828, 14.34106
986.2650, 15.27887
986.7471, 16.14111
987.2292, 17.19327
987.7113, 18.64706
988.1934, 19.41467
988.6755, 19.18524
989.1577, 19.12494
989.6398, 21.07242
990.1219, 23.82523
990.6040, 25.23203
991.0861, 25.02643
991.5682, 24.50763
992.0504, 23.78055
992.5325, 23.33990
993.0146, 23.66934
993.4967, 24.43765
993.9788, 23.84439
994.4609, 21.89703
994.9431, 20.33392
995.4252, 19.83005
995.9073, 20.07956
996.3894, 21.63574
996.8715, 23.47882
997.3536, 24.02347
997.8358, 21.41898
998.3179, 19.58142
998.8000, 18.90288
999.2821, 18.54355
999.7642, 17.66917
1000.246, 16.41579
1000.728, 15.64713
1001.211, 15.38829
1001.693, 14.49892
1002.175, 11.38161
1002.657, 8.169098
1003.139, 6.180206
1003.621, 5.402817
1004.103, 5.130676
1004.585, 5.514130
1005.068, 5.943909
1005.550, 6.493607
1006.032, 6.556198
1006.514, 4.600601
1006.996, 1.577271
1007.478, 0.5229950
1007.960, 0.7370910
1008.442, 1.059570
1008.924, 2.126007
1009.407, 3.487518
1009.889, 4.914993
1010.371, 6.421204
1010.853, 7.243851
1011.335, 7.354004
1011.817, 8.997986
1012.299, 13.85905
1012.781, 20.75459
1013.263, 31.98520
1013.746, 44.71434
1014.228, 48.90984
1014.710, 36.98094
1015.192, 28.20335
1015.674, 25.89803
1016.156, 27.05467
1016.638, 27.81085
1017.120, 28.14488
1017.603, 27.60362
1018.085, 25.86472
1018.567, 25.23581
1019.049, 28.68846
1019.531, 32.33577
1020.013, 33.09904
1020.495, 31.12218
1020.977, 30.93463
1021.459, 32.72897
1021.942, 34.62079
1022.424, 35.76970
1022.906, 36.50557
1023.388, 37.14275
1023.870, 37.72157
1024.352, 38.31372
1024.834, 38.23898
1025.316, 39.39055
1025.799, 42.79013
1026.281, 46.25449
1026.763, 47.07535
1027.245, 45.78059
1027.727, 45.90364
1028.209, 47.59448
1028.691, 49.42035
1029.173, 50.49670
1029.656, 51.30052
1030.138, 51.96945
1030.620, 52.61299
1031.102, 53.79709
1031.584, 55.79332
1032.066, 57.15343
1032.548, 57.40120
1033.030, 57.15292
1033.512, 57.15265
1033.995, 57.35144
1034.477, 57.63448
1034.959, 57.85892
1035.441, 58.64896
1035.923, 61.11688
1036.405, 63.05840
1036.887, 62.78448
1037.369, 60.74355
1037.851, 61.31296
1038.334, 64.20466
1038.816, 66.58700
1039.298, 66.02969
1039.780, 65.26543
1040.262, 66.23670
1040.744, 68.25679
1041.226, 69.96980
1041.708, 71.41012
1042.191, 72.16387
1042.673, 72.13081
1043.155, 71.68542
1043.637, 70.76659
1044.119, 69.87755
1044.601, 70.02900
1045.083, 71.22423
1045.565, 72.34310
1046.047, 73.27794
1046.530, 73.85751
1047.012, 74.12595
1047.494, 73.80607
1047.976, 71.82345
1048.458, 68.53481
1048.940, 66.73407
1049.422, 67.64616
1049.904, 68.69194
1050.386, 67.54472
1050.869, 65.69462
1051.351, 64.73937
1051.833, 65.03088
1052.315, 65.29118
1052.797, 65.51152
1053.279, 65.49165
1053.761, 64.93931
1054.243, 64.09426
1054.726, 63.71633
1055.208, 63.58432
1055.690, 63.09738
1056.172, 61.71472
1056.654, 60.01392
1057.136, 57.86731
1057.618, 55.76238
1058.100, 54.19836
1058.583, 53.13745
1059.065, 52.80490
1059.547, 53.22311
1060.029, 53.27379
1060.511, 51.10126
1060.993, 49.11002
1061.475, 49.34151
1061.957, 51.06647
1062.439, 50.99428
1062.922, 48.77672
1063.404, 46.96333
1063.886, 46.34286
1064.368, 46.17390
1064.850, 45.51740
1065.332, 44.62015
1065.814, 43.77641
1066.296, 43.10515
1066.778, 42.41559
1067.261, 41.78450
1067.743, 40.94139
1068.225, 39.43578
1068.707, 37.73837
1069.189, 38.14610
1069.671, 40.02129
1070.153, 40.88766
1070.635, 38.51395
1071.118, 36.45412
1071.600, 35.71454
1072.082, 35.97412
1072.564, 37.36743
1073.046, 39.98796
1073.528, 40.59877
1074.010, 39.12926
1074.492, 37.42256
1074.974, 36.74461
1075.457, 36.55930
1075.939, 36.52242
1076.421, 36.59470
1076.903, 36.68935
1077.385, 36.75180
1077.867, 36.91344
1078.349, 37.27507
1078.831, 37.34158
1079.313, 36.24490
1079.796, 34.47446
1080.278, 32.55754
1080.760, 30.48566
1081.242, 29.69450
1081.724, 32.76781
1082.206, 34.64668
1082.688, 32.85521
1083.170, 28.96011
1083.652, 28.19617
1084.135, 29.99770
1084.617, 31.59169
1085.099, 32.22595
1085.581, 32.01114
1086.063, 30.63165
1086.545, 28.71823
1087.027, 26.64468
1087.509, 24.30650
1087.992, 23.15813
1088.474, 23.24200
1088.956, 23.89267
1089.438, 25.47021
1089.920, 26.75441
1090.402, 26.02258
1090.884, 24.10004
1091.366, 22.76013
1091.849, 22.55093
1092.331, 22.39212
1092.813, 22.20999
1093.295, 22.12506
1093.777, 22.58861
1094.259, 23.11984
1094.741, 22.60960
1095.223, 21.10399
1095.705, 19.54141
1096.188, 17.86998
1096.670, 16.83528
1097.152, 16.72917
1097.634, 17.17239
1098.116, 17.79926
1098.598, 18.46155
1099.080, 18.04865
1099.562, 16.28137
1100.044, 14.64679
1100.527, 14.22417
1101.009, 14.16983
1101.491, 13.78464
1101.973, 13.21098
1102.455, 13.79555
1102.937, 15.61955
1103.419, 16.46448
1103.901, 15.26012
1104.384, 13.58278
1104.866, 12.94589
1105.348, 12.85025
1105.830, 12.74118
1106.312, 12.56734
1106.794, 12.11047
1107.276, 11.18770
1107.758, 10.77516
1108.240, 12.22641
1108.723, 13.86092
1109.205, 11.91539
1109.687, 7.926071
1110.169, 5.408081
1110.651, 6.295807
1111.133, 7.726517
1111.615, 10.15642
1112.097, 11.90768
1112.579, 10.49290
1113.062, 7.178055
1113.544, 7.371460
1114.026, 10.57851
1114.508, 12.60738
1114.990, 10.00987
1115.472, 7.378174
1115.954, 6.450134
1116.436, 5.102005
1116.919, 5.835281
1117.401, 4.861755
1117.883, 5.177170
1118.365, 7.004395
1118.847, 8.758469
1119.329, 9.342560
1119.811, 9.374908
1120.293, 9.217743
1120.776, 8.850159
1121.258, 8.052063
1121.740, 6.767395
1122.222, 5.650497
1122.704, 4.889008
1123.186, 4.163284
1123.668, 2.568695
1124.150, 1.164307
1124.632, 1.251526
1125.115, 3.187424
1125.597, 5.142761
1126.079, 7.433075
1126.561, 8.480576
1127.043, 7.121780
1127.525, 5.076996
1128.007, 5.693344
1128.489, 7.459778
1128.971, 7.531494
1129.454, 3.889114
1129.936, 2.594604
1130.418, 5.401199
1130.900, 8.191895
1131.382, 8.243851
1131.864, 6.564346
1132.346, 5.905441
1132.828, 6.103195
1133.311, 6.647171
1133.793, 8.694702
1134.275, 8.999451
1134.757, 5.316879
1135.239, 1.432755
1135.721, 1.067230
1136.203, 3.703827
1136.685, 5.124237
1137.167, 5.342026
1137.650, 5.143616
1138.132, 4.656967
1138.614, 4.233307
1139.096, 3.760727
1139.578, 3.635223
1140.060, 4.746353
1140.542, 7.136948
1141.024, 8.032349
1141.506, 7.205673
1141.989, 6.307541
1142.471, 7.088287
1142.953, 7.729797
1143.435, 6.291260
1143.917, 3.675949
1144.399, 3.192551
1144.881, 5.254730
1145.363, 6.458679
1145.846, 6.106796
1146.328, 5.447998
1146.810, 5.839401
1147.292, 6.479233
1147.774, 6.439743
1148.256, 5.681915
1148.738, 5.565445
1149.220, 6.363037
1149.703, 6.854385
1150.185, 6.759537
1150.667, 6.072464
1151.149, 3.618530
1151.631, 1.143539
1152.113, 1.640274
1152.595, 6.241684
1153.077, 8.297638
1153.559, 6.457153
1154.042, 4.655197
1154.524, 4.529968
1155.006, 5.271820
1155.488, 5.796082
1155.970, 5.981613
1156.452, 5.462967
1156.934, 3.777435
1157.416, 2.317108
1157.898, 0.8454740
1158.381, 0.2230380
1158.863, 0.1830600
1159.345, 1.297913
1159.827, 14.48970
1160.309, 33.44954
1160.791, 41.18135
1161.273, 23.04642
1161.755, 8.468842
1162.238, 3.997223
1162.720, 3.686493
1163.202, 4.315063
1163.684, 5.596802
1164.166, 5.930481
1164.648, 5.427811
1165.130, 4.634766
1165.612, 3.117706
1166.094, 2.276154
1166.577, 3.052521
1167.059, 4.175293
1167.541, 4.359909
1168.023, 3.721512
1168.505, 3.363464
1168.987, 3.255463
1169.469, 2.854584
1169.951, 1.041855
1170.433, 0.2392730
1170.916, 0.3914340
1171.398, 1.764542
1171.880, 2.289780
1172.362, 1.958496
1172.844, 1.902725
1173.326, 2.211456
1173.808, 2.763245
1174.290, 3.921707
1174.773, 4.818298
1175.255, 4.763199
1175.737, 4.144760
1176.219, 3.633331
1176.701, 3.227295
1177.183, 2.646194
1177.665, 1.821487
1178.147, 1.452606
1178.630, 2.676270
1179.112, 3.961319
1179.594, 4.144775
1180.076, 3.482361
1180.558, 2.633316
1181.040, 1.530640
1181.522, 1.862381
1182.004, 4.194122
1182.486, 5.909988
1182.969, 3.701401
1183.451, 0.6712340
1183.933, 0.6695710
1184.415, 0.4103550
1184.897, 9.8174997E-02
1185.379, 0.9104920
1185.861, 1.187363
1186.343, 0.4475100
1186.825, 0.3547670
1187.308, 4.036346
1187.790, 7.939072
1188.272, 8.088486
1188.754, 4.459030
1189.236, 2.279266
1189.718, 1.707977
1190.200, 1.300827
1190.682, 0.6094360
1191.165, 0.1112060
1191.647, 0.9990840
1192.129, 1.510025
1192.611, 0.7140200
1193.093, 1.576721
1193.575, 2.603531
1194.057, 2.227219
1194.539, 1.532196
1195.021, 0.6565700
1195.504, 0.1066740
1195.986, 1.186752
1196.468, 2.520111
1196.950, 1.979950
1197.432, 1.129044
1197.914, 2.367706
1198.396, 1.444962
1198.878, 7.3334001E-02
1199.360, 1.623322
1199.843, 2.889877
1200.325, 3.811325
1200.807, 4.030289
1201.289, 2.574677
1201.771, 1.403748
1202.253, 3.367676
1202.735, 3.109863
1203.217, 2.150238
1203.700, 1.190216
1204.182, 0.1478730
1204.664, 1.471924
1205.146, 3.099533
1205.628, 3.756607
1206.110, 3.115219
1206.592, 2.234695
1207.074, 1.001099
1207.557, 0.2148440
1208.039, 0.6233670
1208.521, 1.521057
1209.003, 2.605942
1209.485, 3.481720
1209.967, 3.153824
1210.449, 0.7871250
1210.931, 0.3300020
1211.413, 1.8890001E-02
1211.896, 0.4537200
1212.378, 0.3664250
1212.860, 9.3535997E-02
1213.342, 1.114395
1213.824, 2.261703
1214.306, 2.564178
1214.788, 1.755356
1215.270, 0.9115450
1215.752, 5.2521002E-02
1216.235, 0.8085330
1216.717, 2.010651
1217.199, 2.917191
1217.681, 2.806671
1218.163, 1.912811
1218.645, 0.6521300
1219.127, 1.341278
1219.609, 1.858200
1220.092, 0.6659550
1220.574, 0.6003880
1221.056, 0.2785950
1221.538, 0.2279360
1222.020, 0.4898380
1222.502, 2.007553
1222.984, 3.408524
1223.466, 4.885117
1223.948, 4.825821
1224.431, 3.005112
1224.913, 1.372269
1225.395, 1.889267
1225.877, 2.934799
1226.359, 3.291916
1226.841, 2.976974
1227.323, 2.444183
1227.805, 1.762268
1228.287, 0.5882110
1228.770, 1.146927
1229.252, 2.352432
1229.734, 1.909180
1230.216, 0.8384090
1230.698, 0.4167020
1231.180, 1.654327
1231.662, 2.582825
1232.144, 3.239105
1232.627, 2.968475
1233.109, 1.691803
1233.591, 0.4340520
1234.073, 6.4957000E-02
1234.555, 0.2700650
1235.037, 0.6862030
1235.519, 0.9295200
1236.001, 4.2389002E-02
1236.484, 2.222061
1236.966, 3.134445
1237.448, 2.569016
1237.930, 1.603043
1238.412, 0.2516330
1238.894, 0.4617610
1239.376, 0.5684810
1239.858, 2.335464
1240.340, 3.360199
1240.823, 3.668793
1241.305, 3.454025
1241.787, 2.758926
1242.269, 2.011017
1242.751, 1.545898
1243.233, 0.9822240
1243.715, 0.1738740
1244.197, 1.223129
1244.679, 0.7483980
1245.162, 0.8854220
1245.644, 1.522034
1246.126, 1.088562
1246.608, 1.021378
1247.090, 3.111816
1247.572, 4.289124
1248.054, 3.241959
1248.536, 1.428452
1249.019, 0.9300540
1249.501, 1.448593
1249.983, 2.369583
1250.465, 3.510803
1250.947, 3.763840
1251.429, 1.295929
1251.911, 0.1408230
1252.393, 1.632462
1252.875, 3.730255
1253.358, 3.893570
1253.840, 2.885864
1254.322, 2.056961
1254.804, 1.460922
1255.286, 0.6306000
1255.768, 1.505783
1256.250, 2.033112
1256.732, 4.1717999E-02
1257.214, 2.451981
1257.697, 1.888626
1258.179, 0.1206510
1258.661, 3.1372000E-02
1259.143, 1.578232
1259.625, 2.917175
1260.107, 3.881622
1260.589, 3.966644
1261.071, 2.939697
1261.554, 1.601196
1262.036, 1.027924
1262.518, 0.8896330
1263.000, 1.024887
1263.482, 1.326447
1263.964, 1.430466
1264.446, 1.296783
1264.928, 0.8821560
1265.411, 5.6685999E-02
1265.893, 2.2766000E-02
1266.375, 2.868011
1266.857, 5.764282
1267.339, 5.556519
1267.821, 3.054352
1268.303, 1.458969
1268.785, 0.7294310
1269.267, 1.403946
1269.750, 3.660217
1270.232, 5.578354
1270.714, 5.244705
1271.196, 4.327652
1271.678, 3.892349
1272.160, 3.727112
1272.642, 3.638046
1273.124, 3.606506
1273.606, 2.978821
1274.089, 1.674667
1274.571, 1.568634
1275.053, 4.633438
1275.535, 7.336044
1276.017, 8.584091
1276.499, 8.640686
1276.981, 7.205902
1277.463, 4.890854
1277.946, 4.174072
1278.428, 5.103287
1278.910, 6.007462
1279.392, 5.880280
1279.874, 5.562332
1280.356, 6.774384
1280.838, 7.690674
1281.320, 6.542328
1281.802, 4.290848
1282.285, 2.398254
1282.767, 0.9536590
1283.249, 3.9444000E-02
1283.731, 0.5619660
1284.213, 0.2072300
1284.695, 2.652618
1285.177, 5.095566
1285.659, 4.590897
1286.141, 2.959549
1286.624, 2.701706
1287.106, 3.367554
1287.588, 3.658936
1288.070, 3.436356
1288.552, 2.901794
1289.034, 2.009674
1289.516, 1.542084
1289.998, 2.430374
1290.481, 3.644989
1290.963, 4.548370
1291.445, 5.112228
1291.927, 5.428726
1292.409, 5.480179
1292.891, 5.176361
1293.373, 4.136826
1293.855, 2.501953
1294.338, 0.9113010
1294.820, 0.2001500
1295.302, 2.105377
1295.784, 4.462616
1296.266, 5.553757
1296.748, 5.424622
1297.230, 3.773056
1297.712, 1.148346
1298.194, 2.5574001E-02
1298.677, 3.254852
1299.159, 5.099396
1299.641, 4.759628
1300.123, 3.706177
1300.605, 3.101349
1301.087, 2.440369
1301.569, 1.698059
1302.051, 0.7548980
1302.533, 0.1747590
1303.016, 0.0000000E+00
##END=



