##NAMES=Natrolite
##RRUFFID=R060561
##IDEAL CHEMISTRY=Na_2_(Si_3_Al_2_)O_10_&#183;2H_2_O
##LOCALITY=California, USA
##OWNER=RRUFF
##SOURCE=Gemological Institute of America
##DESCRIPTION=White fragment
##STATUS=The identification of this mineral has been confirmed by X-ray diffraction and chemical analysis
##URL=rruff.info/R060561
##MEASURED CHEMISTRY=Na_2.00_(Si_3.00_Al_2.00_)O_10_Â·2H_2_O
115.254, 0.000
115.736, 117.385
116.218, 7.609
116.701, 12.725
117.183, 282.143
117.665, 760.512
118.147, 1423.942
118.629, 2358.534
119.111, 3609.061
119.593, 5170.845
120.075, 6995.252
120.558, 9514.244
121.040, 12034.956
121.522, 14126.204
122.004, 15818.198
122.486, 16854.877
122.968, 16795.873
123.450, 15775.776
123.932, 14354.052
124.414, 12393.394
124.897, 10208.473
125.379, 8154.875
125.861, 6279.834
126.343, 4627.704
126.825, 3274.313
127.307, 2213.887
127.789, 1381.907
128.271, 791.135
128.753, 400.949
129.236, 108.355
129.718, 103.822
130.200, 78.835
130.682, 18.774
131.164, 13.477
131.646, 55.752
132.128, 107.141
132.610, 175.405
133.093, 93.762
133.575, 303.435
134.057, 894.450
134.539, 1411.050
135.021, 1822.748
135.503, 2218.669
135.985, 2790.410
136.467, 3579.033
136.949, 4304.200
137.432, 4797.748
137.914, 5041.412
138.396, 5266.115
138.878, 5464.928
139.360, 5662.722
139.842, 5938.398
140.324, 6301.226
140.806, 6718.704
141.288, 7176.876
141.771, 7695.474
142.253, 8212.408
142.735, 8746.092
143.217, 9291.200
143.699, 9692.099
144.181, 9973.479
144.663, 10088.874
145.145, 9998.644
145.628, 9676.216
146.110, 9187.265
146.592, 8514.520
147.074, 7616.203
147.556, 6734.836
148.038, 5802.100
148.520, 4904.095
149.002, 4162.744
149.484, 3570.117
149.967, 3126.248
150.449, 2834.390
150.931, 2709.890
151.413, 2702.618
151.895, 2829.825
152.377, 3074.479
152.859, 3397.302
153.342, 3798.607
153.824, 4278.317
154.306, 4832.979
154.788, 5449.115
155.270, 6158.013
155.752, 6967.835
156.234, 7877.477
156.716, 8895.151
157.198, 10026.468
157.680, 11257.248
158.163, 12567.425
158.645, 14007.547
159.127, 15475.120
159.609, 17037.025
160.091, 18661.174
160.573, 20075.039
161.055, 21269.389
161.538, 22164.525
162.020, 22668.838
162.502, 22730.869
162.984, 22409.922
163.466, 21659.281
163.948, 20470.221
164.430, 19099.545
164.912, 17555.543
165.394, 15939.606
165.876, 14388.808
166.359, 12893.447
166.841, 11527.012
167.323, 10344.547
167.805, 9358.457
168.287, 8508.734
168.769, 7764.338
169.251, 7138.423
169.733, 6646.893
170.216, 6363.486
170.698, 6187.050
171.180, 6024.858
171.662, 5858.539
172.144, 5730.319
172.626, 5720.532
173.108, 5745.255
173.590, 5711.788
174.072, 5550.747
174.555, 5293.670
175.037, 4963.110
175.519, 4533.542
176.001, 4082.623
176.483, 3681.231
176.965, 3327.315
177.447, 3031.940
177.929, 2798.562
178.412, 2622.541
178.894, 2501.612
179.376, 2439.653
179.858, 2431.956
180.340, 2471.466
180.822, 2558.256
181.304, 2694.010
181.786, 2883.694
182.268, 3124.041
182.751, 3404.594
183.233, 3722.210
183.715, 4076.599
184.197, 4484.143
184.679, 4953.982
185.161, 5396.349
185.643, 5772.823
186.125, 6061.840
186.607, 6188.679
187.090, 6104.158
187.572, 5826.969
188.054, 5408.982
188.536, 4837.310
189.018, 4211.067
189.500, 3649.089
189.982, 3158.175
190.464, 2710.245
190.947, 2301.715
191.429, 1933.678
191.911, 1644.497
192.393, 1440.952
192.875, 1299.824
193.357, 1187.870
193.839, 1106.902
194.321, 1059.225
194.803, 1050.389
195.286, 1078.269
195.768, 1119.830
196.250, 1173.921
196.732, 1243.340
197.214, 1333.039
197.696, 1441.582
198.178, 1569.687
198.661, 1715.889
199.143, 1881.168
199.625, 2075.824
200.107, 2301.188
200.589, 2558.682
201.071, 2850.876
201.553, 3178.939
202.035, 3539.702
202.517, 3936.156
202.999, 4366.557
203.482, 4821.892
203.964, 5319.556
204.446, 5838.597
204.928, 6317.047
205.410, 6767.272
205.892, 7139.735
206.374, 7412.194
206.857, 7600.161
207.339, 7603.273
207.821, 7374.788
208.303, 6945.931
208.785, 6490.544
209.267, 5999.733
209.749, 5497.779
210.231, 4994.482
210.713, 4474.069
211.195, 4003.888
211.678, 3589.434
212.160, 3231.767
212.642, 2966.833
213.124, 2814.047
213.606, 2718.138
214.088, 2632.664
214.570, 2559.139
215.052, 2489.813
215.535, 2421.793
216.017, 2354.714
216.499, 2292.895
216.981, 2227.486
217.463, 2177.124
217.945, 2167.678
218.427, 2217.659
218.909, 2261.044
219.391, 2281.016
219.874, 2276.129
220.356, 2269.448
220.838, 2270.564
221.320, 2259.475
221.802, 2213.885
222.284, 2136.276
222.766, 2019.413
223.248, 1856.449
223.731, 1639.764
224.213, 1422.705
224.695, 1196.782
225.177, 976.841
225.659, 778.505
226.141, 604.632
226.623, 450.381
227.105, 316.611
227.587, 206.682
228.070, 100.093
228.552, 9.579
229.034, 111.157
229.516, 182.009
229.998, 140.450
230.480, 115.102
230.962, 102.933
231.444, 108.632
231.926, 107.287
232.409, 92.832
232.891, 74.730
233.373, 67.928
233.855, 68.689
234.337, 87.536
234.819, 132.521
235.301, 115.276
235.783, 46.572
236.266, 10.650
236.748, 14.736
237.230, 71.978
237.712, 171.924
238.194, 288.967
238.676, 417.624
239.158, 570.574
239.640, 701.749
240.122, 819.515
240.605, 912.202
241.087, 954.088
241.569, 933.948
242.051, 880.143
242.533, 801.299
243.015, 689.565
243.497, 570.620
243.980, 433.033
244.462, 292.070
244.944, 184.751
245.426, 127.355
245.908, 78.070
246.390, 18.707
246.872, 58.912
247.354, 126.995
247.836, 85.871
248.318, 32.401
248.801, 3.180
249.283, 11.518
249.765, 22.382
250.247, 21.322
250.729, 5.056
251.211, 15.323
251.693, 45.109
252.176, 76.315
252.658, 86.771
253.140, 61.801
253.622, 39.337
254.104, 38.862
254.586, 76.013
255.068, 90.714
255.550, 76.408
256.032, 41.830
256.514, 7.529
256.997, 26.546
257.479, 60.770
257.961, 96.568
258.443, 94.068
258.925, 61.618
259.407, 48.153
259.889, 40.400
260.371, 0.643
260.854, 97.141
261.336, 184.378
261.818, 222.723
262.300, 181.090
262.782, 193.502
263.264, 282.354
263.746, 413.794
264.228, 504.548
264.711, 541.415
265.193, 569.543
265.675, 607.777
266.157, 655.406
266.639, 717.112
267.121, 799.462
267.603, 889.573
268.085, 955.786
268.567, 986.018
269.050, 1025.632
269.532, 1098.804
270.014, 1212.104
270.496, 1325.049
270.978, 1440.946
271.460, 1550.297
271.942, 1631.776
272.424, 1679.504
272.906, 1719.289
273.389, 1763.226
273.871, 1812.255
274.353, 1859.288
274.835, 1907.043
275.317, 1948.439
275.799, 1974.976
276.281, 1989.103
276.763, 1974.290
277.246, 1917.373
277.728, 1816.817
278.210, 1705.806
278.692, 1579.672
279.174, 1451.464
279.656, 1340.152
280.138, 1246.235
280.620, 1163.231
281.103, 1084.293
281.585, 1009.753
282.067, 962.778
282.549, 947.155
283.031, 949.999
283.513, 950.600
283.995, 948.532
284.477, 959.381
284.959, 987.644
285.441, 1033.769
285.924, 1105.927
286.406, 1208.145
286.888, 1315.644
287.370, 1417.793
287.852, 1518.984
288.334, 1577.827
288.816, 1555.011
289.298, 1471.064
289.781, 1416.723
290.263, 1394.780
290.745, 1388.534
291.227, 1381.061
291.709, 1372.430
292.191, 1364.020
292.673, 1362.180
293.155, 1364.012
293.638, 1347.647
294.120, 1309.658
294.602, 1265.194
295.084, 1221.116
295.566, 1181.313
296.048, 1160.157
296.530, 1165.956
297.012, 1192.751
297.494, 1226.560
297.977, 1267.834
298.459, 1326.452
298.941, 1414.816
299.423, 1528.554
299.905, 1653.415
300.387, 1784.329
300.869, 1925.528
301.351, 2080.830
301.833, 2251.453
302.316, 2446.300
302.798, 2658.882
303.280, 2901.151
303.762, 3201.685
304.244, 3593.925
304.726, 4013.687
305.208, 4450.813
305.690, 4887.630
306.172, 5190.733
306.655, 5263.242
307.137, 5142.480
307.619, 4865.391
308.101, 4382.791
308.583, 3830.039
309.065, 3287.416
309.547, 2756.759
310.030, 2269.480
310.512, 1837.063
310.994, 1463.670
311.476, 1154.347
311.958, 923.011
312.440, 727.764
312.922, 545.103
313.404, 382.283
313.886, 253.534
314.369, 180.481
314.851, 130.824
315.333, 83.130
315.815, 29.618
316.297, 11.008
316.779, 23.159
317.261, 19.135
317.743, 19.625
318.225, 43.089
318.708, 59.040
319.190, 53.698
319.672, 20.740
320.154, 19.378
320.636, 63.849
321.118, 112.612
321.600, 165.206
322.082, 216.535
322.565, 273.419
323.047, 336.076
323.529, 404.862
324.011, 488.460
324.493, 591.277
324.975, 705.724
325.457, 829.368
325.939, 964.524
326.422, 1106.015
326.904, 1249.784
327.386, 1392.505
327.868, 1557.589
328.350, 1754.701
328.832, 1969.072
329.314, 2189.416
329.796, 2442.392
330.278, 2663.641
330.760, 2857.285
331.243, 3024.367
331.725, 3106.062
332.207, 3088.222
332.689, 2998.813
333.171, 2852.025
333.653, 2614.385
334.135, 2385.107
334.617, 2178.667
335.100, 1989.554
335.582, 1794.608
336.064, 1580.475
336.546, 1386.569
337.028, 1239.776
337.510, 1150.847
337.992, 1071.418
338.474, 987.824
338.957, 912.128
339.439, 871.643
339.921, 873.733
340.403, 881.341
340.885, 871.679
341.367, 842.406
341.849, 831.773
342.331, 845.125
342.813, 870.255
343.296, 890.449
343.778, 906.140
344.260, 908.130
344.742, 880.930
345.224, 831.789
345.706, 811.236
346.188, 823.030
346.670, 848.368
347.152, 861.454
347.635, 865.925
348.117, 883.147
348.599, 922.615
349.081, 979.794
349.563, 1047.099
350.045, 1124.054
350.527, 1202.448
351.009, 1270.302
351.491, 1331.784
351.974, 1395.116
352.456, 1457.544
352.938, 1528.499
353.420, 1628.344
353.902, 1752.039
354.384, 1871.221
354.866, 1960.271
355.349, 2033.554
355.831, 2109.659
356.313, 2189.196
356.795, 2279.812
357.277, 2401.357
357.759, 2542.378
358.241, 2665.463
358.723, 2745.075
359.205, 2803.485
359.688, 2863.406
360.170, 2938.337
360.652, 2983.397
361.134, 3002.209
361.616, 2974.268
362.098, 2864.792
362.580, 2568.532
363.062, 2265.752
363.544, 2038.507
364.027, 1904.788
364.509, 1777.652
364.991, 1637.752
365.473, 1492.916
365.955, 1353.297
366.437, 1204.035
366.919, 1075.201
367.401, 976.716
367.884, 908.785
368.366, 854.816
368.848, 823.072
369.330, 799.694
369.812, 775.057
370.294, 737.083
370.776, 716.816
371.258, 732.361
371.741, 770.522
372.223, 769.107
372.705, 713.463
373.187, 638.165
373.669, 555.872
374.151, 456.125
374.633, 379.024
375.115, 332.423
375.597, 303.033
376.079, 262.272
376.562, 207.195
377.044, 150.583
377.526, 94.724
378.008, 38.065
378.490, 0.932
378.972, 14.265
379.454, 16.608
379.936, 10.649
380.419, 3.257
380.901, 1.499
381.383, 31.833
381.865, 83.955
382.347, 56.196
382.829, 52.304
383.311, 52.910
383.793, 39.898
384.276, 16.366
384.758, 10.020
385.240, 40.438
385.722, 68.517
386.204, 90.869
386.686, 105.745
387.168, 103.433
387.650, 60.000
388.132, 2.861
388.615, 29.850
389.097, 26.942
389.579, 17.222
390.061, 26.181
390.543, 44.469
391.025, 53.596
391.507, 29.744
391.989, 5.289
392.471, 7.257
392.954, 40.911
393.436, 64.424
393.918, 39.638
394.400, 4.044
394.882, 3.054
395.364, 63.579
395.846, 8.935
396.328, 28.318
396.810, 41.114
397.293, 44.116
397.775, 25.281
398.257, 7.031
398.739, 2.076
399.221, 9.386
399.703, 32.224
400.185, 79.379
400.668, 141.335
401.150, 192.849
401.632, 223.494
402.114, 257.218
402.596, 302.043
403.078, 358.668
403.560, 426.974
404.042, 517.037
404.524, 613.229
405.007, 685.754
405.489, 721.191
405.971, 775.096
406.453, 841.214
406.935, 931.582
407.417, 1179.000
407.899, 1615.507
408.381, 2062.424
408.863, 2366.366
409.346, 2533.383
409.828, 2630.366
410.310, 2658.565
410.792, 2638.619
411.274, 2595.913
411.756, 2532.818
412.238, 2475.813
412.720, 2452.120
413.203, 2444.231
413.685, 2417.618
414.167, 2370.251
414.649, 2304.765
415.131, 2208.954
415.613, 2094.865
416.095, 1989.634
416.577, 1901.315
417.060, 1828.132
417.542, 1776.614
418.024, 1745.513
418.506, 1702.839
418.988, 1614.031
419.470, 1513.871
419.952, 1435.399
420.434, 1389.894
420.916, 1362.958
421.398, 1353.261
421.881, 1359.172
422.363, 1374.931
422.845, 1402.059
423.327, 1437.026
423.809, 1477.614
424.291, 1519.930
424.773, 1577.076
425.255, 1647.390
425.738, 1732.936
426.220, 1837.459
426.702, 1955.413
427.184, 2099.198
427.666, 2271.133
428.148, 2470.586
428.630, 2713.702
429.112, 3009.465
429.595, 3332.121
430.077, 3656.427
430.559, 3980.354
431.041, 4318.720
431.523, 4671.517
432.005, 5048.848
432.487, 5472.895
432.969, 5942.343
433.451, 6476.693
433.934, 7089.194
434.416, 7776.537
434.898, 8512.188
435.380, 9287.157
435.862, 10151.501
436.344, 11145.680
436.826, 12274.054
437.308, 13552.681
437.790, 15018.171
438.273, 16625.986
438.755, 18337.490
439.237, 20144.793
439.719, 21948.490
440.201, 23901.086
440.683, 25728.707
441.165, 27188.492
441.647, 28369.986
442.129, 28891.596
442.612, 28388.797
443.094, 27080.117
443.576, 25417.166
444.058, 23326.875
444.540, 21104.170
445.022, 18809.777
445.504, 16391.410
445.987, 14205.550
446.469, 12281.098
446.951, 10607.774
447.433, 9146.049
447.915, 7963.058
448.397, 6918.364
448.879, 6009.585
449.361, 5228.196
449.843, 4552.485
450.326, 4000.452
450.808, 3512.570
451.290, 3057.924
451.772, 2629.832
452.254, 2254.941
452.736, 1938.623
453.218, 1673.070
453.700, 1462.631
454.182, 1306.379
454.665, 1164.533
455.147, 1030.565
455.629, 901.244
456.111, 763.469
456.593, 617.920
457.075, 486.999
457.557, 393.819
458.039, 329.700
458.522, 281.453
459.004, 252.369
459.486, 223.610
459.968, 171.815
460.450, 103.752
460.932, 39.086
461.414, 20.035
461.896, 66.996
462.379, 90.821
462.861, 88.353
463.343, 91.897
463.825, 77.157
464.307, 37.707
464.789, 3.675
465.271, 32.978
465.753, 51.483
466.235, 37.684
466.717, 1.711
467.200, 32.590
467.682, 50.974
468.164, 61.824
468.646, 64.103
469.128, 47.494
469.610, 50.803
470.092, 77.932
470.574, 90.765
471.057, 40.525
471.539, 20.948
472.021, 77.719
472.503, 124.309
472.985, 162.938
473.467, 208.603
473.949, 262.310
474.431, 315.495
474.914, 354.189
475.396, 384.394
475.878, 435.779
476.360, 515.226
476.842, 607.050
477.324, 694.521
477.806, 779.009
478.288, 862.121
478.770, 950.743
479.253, 1036.578
479.735, 1106.657
480.217, 1162.168
480.699, 1222.873
481.181, 1308.670
481.663, 1401.261
482.145, 1485.535
482.627, 1559.045
483.109, 1619.308
483.592, 1654.857
484.074, 1675.872
484.556, 1705.211
485.038, 1775.656
485.520, 1827.036
486.002, 1828.692
486.484, 1769.836
486.966, 1737.076
487.448, 1747.601
487.931, 1767.674
488.413, 1767.487
488.895, 1737.824
489.377, 1716.631
489.859, 1712.424
490.341, 1717.922
490.823, 1714.593
491.306, 1703.392
491.788, 1681.232
492.270, 1633.119
492.752, 1568.402
493.234, 1548.772
493.716, 1579.278
494.198, 1620.516
494.680, 1633.508
495.162, 1624.512
495.645, 1607.595
496.127, 1582.574
496.609, 1556.255
497.091, 1531.943
497.573, 1511.041
498.055, 1498.659
498.537, 1498.325
499.019, 1506.814
499.501, 1521.499
499.984, 1541.420
500.466, 1571.762
500.948, 1617.581
501.430, 1673.280
501.912, 1734.207
502.394, 1809.559
502.876, 1877.176
503.358, 1925.024
503.841, 1960.850
504.323, 2018.597
504.805, 2102.593
505.287, 2203.377
505.769, 2321.074
506.251, 2458.437
506.733, 2584.723
507.215, 2696.027
507.698, 2805.295
508.180, 2931.258
508.662, 3073.960
509.144, 3208.283
509.626, 3309.579
510.108, 3418.188
510.590, 3643.715
511.072, 3973.855
511.554, 4293.456
512.036, 4537.701
512.519, 4721.525
513.001, 4857.994
513.483, 4943.690
513.965, 5031.329
514.447, 5147.033
514.929, 5292.512
515.411, 5469.491
515.893, 5715.052
516.375, 5956.424
516.858, 6144.737
517.340, 6300.640
517.822, 6499.746
518.304, 6798.111
518.786, 7110.579
519.268, 7398.575
519.750, 7645.621
520.232, 7908.554
520.715, 8178.757
521.197, 8475.312
521.679, 8817.410
522.161, 9200.554
522.643, 9641.039
523.125, 10142.145
523.607, 10702.146
524.089, 11312.566
524.571, 11968.551
525.054, 12699.186
525.536, 13508.147
526.018, 14403.021
526.500, 15399.795
526.982, 16500.041
527.464, 17754.334
527.946, 19214.074
528.429, 20849.154
528.911, 22610.016
529.393, 24486.844
529.875, 26450.662
530.357, 28560.621
530.839, 30756.395
531.321, 32826.059
531.803, 34943.551
532.286, 36727.902
532.768, 38034.953
533.250, 38893.633
533.732, 39083.414
534.214, 38494.777
534.696, 37287.090
535.178, 35537.715
535.660, 32992.383
536.142, 30386.166
536.625, 27674.006
537.107, 24949.256
537.589, 22371.395
538.071, 19923.943
538.553, 17701.307
539.035, 15718.812
539.517, 13979.062
539.999, 12473.289
540.481, 11194.218
540.964, 10066.772
541.446, 9027.936
541.928, 8086.824
542.410, 7275.750
542.892, 6613.141
543.374, 6038.237
543.856, 5491.870
544.338, 4986.894
544.820, 4541.922
545.303, 4201.775
545.785, 3898.033
546.267, 3591.101
546.749, 3284.642
547.231, 3007.855
547.713, 2778.029
548.195, 2576.325
548.677, 2393.550
549.159, 2237.245
549.642, 2074.465
550.124, 1888.895
550.606, 1708.908
551.088, 1574.078
551.570, 1499.484
552.052, 1419.482
552.534, 1316.017
553.016, 1193.527
553.499, 1067.807
553.981, 941.878
554.463, 838.439
554.945, 788.584
555.427, 772.736
555.909, 736.265
556.391, 677.148
556.873, 611.650
557.356, 544.315
557.838, 483.348
558.320, 439.699
558.802, 426.053
559.284, 417.975
559.766, 407.562
560.248, 390.597
560.730, 359.803
561.213, 287.327
561.695, 222.287
562.177, 183.757
562.659, 176.017
563.141, 169.276
563.623, 157.116
564.105, 148.103
564.587, 150.784
565.069, 172.725
565.552, 179.725
566.034, 167.536
566.516, 144.627
566.998, 125.351
567.480, 110.104
567.962, 84.835
568.444, 40.155
568.926, 13.093
569.408, 54.180
569.891, 37.119
570.373, 19.373
570.855, 7.689
571.337, 22.280
571.819, 30.054
572.301, 31.727
572.783, 9.018
573.265, 17.826
573.747, 14.001
574.230, 9.669
574.712, 22.914
575.194, 3.768
575.676, 16.734
576.158, 16.875
576.640, 22.898
577.122, 16.212
577.604, 13.429
578.086, 23.340
578.569, 26.193
579.051, 17.961
579.533, 10.941
580.015, 10.160
580.497, 25.352
580.979, 44.782
581.461, 31.260
581.943, 38.342
582.426, 44.451
582.908, 14.425
583.390, 34.696
583.872, 63.996
584.354, 40.566
584.836, 12.822
585.318, 17.726
585.800, 46.882
586.282, 75.017
586.765, 100.832
587.247, 115.581
587.729, 107.666
588.211, 69.147
588.693, 56.362
589.175, 90.404
589.657, 133.472
590.140, 156.737
590.622, 150.706
591.104, 156.969
591.586, 182.296
592.068, 214.515
592.550, 231.605
593.032, 233.919
593.514, 238.633
593.996, 254.659
594.479, 273.858
594.961, 276.406
595.443, 265.415
595.925, 259.514
596.407, 277.414
596.889, 302.343
597.371, 318.313
597.853, 323.582
598.335, 324.940
598.818, 332.566
599.300, 333.912
599.782, 318.195
600.264, 269.337
600.746, 221.657
601.228, 165.174
601.710, 114.727
602.192, 102.759
602.674, 154.426
603.157, 182.590
603.639, 157.809
604.121, 92.835
604.603, 42.036
605.085, 5.993
605.567, 18.114
606.049, 28.778
606.531, 28.966
607.013, 20.803
607.496, 3.327
607.978, 3.051
608.460, 14.185
608.942, 44.618
609.424, 61.008
609.906, 8.437
610.388, 12.152
610.870, 10.612
611.353, 27.226
611.835, 1.500
612.317, 3.968
612.799, 11.337
613.281, 39.518
613.763, 82.065
614.245, 84.980
614.727, 28.059
615.209, 23.571
615.692, 24.528
616.174, 6.773
616.656, 26.859
617.138, 29.389
617.620, 16.722
618.102, 24.237
618.584, 23.531
619.067, 47.493
619.549, 23.521
620.031, 8.396
620.513, 16.241
620.995, 7.390
621.477, 5.695
621.959, 24.946
622.441, 40.308
622.923, 41.997
623.406, 33.760
623.888, 38.199
624.370, 71.471
624.852, 101.342
625.334, 117.874
625.816, 120.824
626.298, 109.973
626.780, 78.994
627.263, 45.461
627.745, 25.850
628.227, 20.491
628.709, 35.640
629.191, 75.882
629.673, 118.855
630.155, 140.686
630.637, 145.135
631.119, 138.216
631.602, 114.978
632.084, 90.911
632.566, 72.243
633.048, 61.292
633.530, 61.606
634.012, 88.648
634.494, 114.359
634.976, 126.595
635.458, 124.457
635.941, 127.399
636.423, 141.775
636.905, 152.586
637.387, 147.318
637.869, 121.980
638.351, 113.694
638.833, 127.617
639.315, 143.532
639.797, 129.586
640.280, 94.490
640.762, 73.261
641.244, 70.377
641.726, 86.037
642.208, 149.441
642.690, 230.429
643.172, 269.461
643.654, 197.087
644.137, 120.809
644.619, 97.941
645.101, 118.960
645.583, 117.865
646.065, 53.821
646.547, 2.483
647.029, 25.403
647.511, 12.846
647.994, 2.852
648.476, 20.940
648.958, 42.812
649.440, 75.650
649.922, 116.642
650.404, 124.513
650.886, 85.196
651.368, 60.139
651.851, 34.627
652.333, 58.823
652.815, 70.944
653.297, 71.641
653.779, 26.716
654.261, 40.691
654.743, 31.040
655.225, 20.404
655.707, 42.621
656.190, 4.266
656.672, 25.936
657.154, 19.235
657.636, 19.667
658.118, 45.289
658.600, 70.777
659.082, 82.791
659.564, 81.769
660.046, 88.052
660.529, 103.232
661.011, 111.757
661.493, 92.085
661.975, 56.049
662.457, 31.394
662.939, 22.762
663.421, 18.254
663.903, 10.998
664.385, 5.999
664.868, 9.016
665.350, 31.562
665.832, 52.178
666.314, 64.335
666.796, 68.405
667.278, 61.389
667.760, 31.946
668.242, 23.725
668.724, 47.552
669.207, 92.565
669.689, 129.731
670.171, 157.702
670.653, 180.317
671.135, 203.873
671.617, 219.491
672.099, 203.063
672.581, 158.728
673.064, 121.174
673.546, 127.474
674.028, 148.220
674.510, 153.706
674.992, 136.043
675.474, 121.812
675.956, 121.776
676.438, 132.157
676.920, 141.549
677.403, 150.274
677.885, 153.065
678.367, 144.210
678.849, 139.127
679.331, 170.072
679.813, 240.062
680.295, 292.337
680.778, 298.491
681.260, 289.005
681.742, 336.518
682.224, 427.720
682.706, 501.874
683.188, 506.985
683.670, 495.226
684.152, 512.115
684.634, 556.293
685.117, 593.785
685.599, 605.961
686.081, 614.610
686.563, 631.520
687.045, 658.075
687.527, 688.094
688.009, 723.138
688.491, 760.917
688.973, 798.350
689.456, 835.546
689.938, 882.657
690.420, 941.764
690.902, 1006.304
691.384, 1076.230
691.866, 1145.391
692.348, 1195.827
692.830, 1203.729
693.312, 1224.606
693.795, 1323.867
694.277, 1459.198
694.759, 1554.583
695.241, 1541.866
695.723, 1538.630
696.205, 1578.232
696.687, 1649.428
697.169, 1712.779
697.652, 1769.290
698.134, 1809.503
698.616, 1826.730
699.098, 1828.747
699.580, 1865.945
700.062, 1938.884
700.544, 2001.676
701.026, 2005.426
701.508, 1985.116
701.991, 1996.545
702.473, 2044.046
702.955, 2090.607
703.437, 2118.881
703.919, 2133.587
704.401, 2139.582
704.883, 2144.919
705.365, 2124.990
705.847, 2065.406
706.330, 1992.474
706.812, 1928.428
707.294, 1869.921
707.776, 1831.983
708.258, 1822.490
708.740, 1822.357
709.222, 1808.914
709.705, 1782.123
710.187, 1746.679
710.669, 1697.624
711.151, 1644.478
711.633, 1593.806
712.115, 1547.119
712.597, 1508.665
713.079, 1476.841
713.561, 1456.189
714.044, 1453.839
714.526, 1467.874
715.008, 1473.280
715.490, 1456.002
715.972, 1449.718
716.454, 1470.523
716.936, 1516.316
717.418, 1565.138
717.901, 1618.410
718.383, 1660.464
718.865, 1671.073
719.347, 1666.078
719.829, 1679.651
720.311, 1715.605
720.793, 1754.570
721.275, 1773.868
721.757, 1794.193
722.240, 1836.009
722.722, 1916.927
723.204, 1982.036
723.686, 2023.878
724.168, 2042.994
724.650, 2037.938
725.132, 2000.199
725.614, 1975.134
726.096, 1967.078
726.579, 1964.662
727.061, 1952.734
727.543, 1930.258
728.025, 1895.822
728.507, 1849.029
728.989, 1788.786
729.471, 1706.636
729.953, 1609.598
730.435, 1513.355
730.918, 1430.548
731.400, 1343.051
731.882, 1242.459
732.364, 1132.898
732.846, 1027.394
733.328, 921.413
733.810, 829.819
734.292, 760.934
734.775, 709.672
735.257, 646.411
735.739, 571.092
736.221, 509.458
736.703, 495.173
737.185, 496.112
737.667, 454.372
738.149, 372.900
738.631, 296.556
739.114, 247.351
739.596, 215.115
740.078, 197.897
740.560, 200.724
741.042, 188.984
741.524, 143.789
742.006, 104.050
742.489, 99.766
742.971, 139.492
743.453, 150.894
743.935, 127.917
744.417, 98.657
744.899, 97.032
745.381, 111.294
745.863, 109.200
746.345, 79.699
746.828, 54.688
747.310, 63.860
747.792, 87.836
748.274, 104.327
748.756, 91.695
749.238, 93.705
749.720, 134.421
750.202, 182.401
750.684, 194.759
751.167, 166.297
751.649, 123.569
752.131, 64.204
752.613, 5.603
753.095, 15.984
753.577, 7.407
754.059, 2.222
754.541, 28.366
755.023, 42.164
755.506, 3.866
755.988, 90.199
756.470, 138.072
756.952, 79.698
757.434, 24.556
757.916, 10.487
758.398, 27.130
758.880, 32.105
759.362, 22.104
759.845, 8.883
760.327, 5.926
760.809, 19.479
761.291, 16.874
761.773, 0.690
762.255, 12.706
762.737, 3.379
763.219, 14.531
763.702, 27.789
764.184, 34.953
764.666, 22.590
765.148, 12.943
765.630, 36.940
766.112, 21.308
766.594, 28.278
767.076, 6.507
767.558, 23.076
768.041, 13.051
768.523, 0.435
769.005, 11.534
769.487, 29.236
769.969, 54.546
770.451, 63.510
770.933, 42.813
771.416, 11.648
771.898, 9.016
772.380, 16.411
772.862, 9.759
773.344, 30.245
773.826, 72.332
774.308, 91.977
774.790, 84.554
775.272, 64.030
775.755, 23.688
776.237, 15.625
776.719, 23.426
777.201, 4.841
777.683, 6.669
778.165, 16.526
778.647, 18.735
779.129, 30.521
779.612, 24.218
780.094, 12.284
780.576, 29.280
781.058, 41.307
781.540, 19.472
782.022, 5.911
782.504, 0.158
782.986, 25.548
783.468, 10.794
783.951, 12.174
784.433, 14.247
784.915, 2.801
785.397, 16.960
785.879, 17.038
786.361, 14.008
786.843, 0.472
787.325, 2.012
787.807, 5.528
788.290, 20.834
788.772, 63.399
789.254, 91.041
789.736, 79.581
790.218, 48.622
790.700, 38.919
791.182, 59.330
791.664, 71.973
792.146, 59.175
792.629, 42.627
793.111, 90.703
793.593, 188.608
794.075, 255.578
794.557, 239.497
795.039, 194.250
795.521, 152.222
796.003, 118.923
796.485, 108.960
796.968, 160.105
797.450, 198.057
797.932, 198.581
798.414, 172.293
798.896, 149.730
799.378, 130.199
799.860, 125.958
800.343, 150.316
800.825, 187.369
801.307, 195.900
801.789, 180.743
802.271, 164.707
802.753, 157.915
803.235, 157.079
803.717, 162.113
804.199, 171.659
804.682, 179.362
805.164, 183.904
805.646, 186.360
806.128, 189.810
806.610, 192.056
807.092, 171.217
807.574, 123.313
808.056, 87.887
808.539, 98.996
809.021, 132.031
809.503, 133.789
809.985, 110.341
810.467, 94.755
810.949, 111.400
811.431, 135.945
811.913, 155.388
812.395, 166.772
812.878, 169.643
813.360, 166.205
813.842, 158.012
814.324, 145.003
814.806, 128.259
815.288, 114.608
815.770, 103.981
816.252, 99.273
816.734, 103.486
817.217, 113.675
817.699, 131.957
818.181, 155.535
818.663, 165.043
819.145, 149.902
819.627, 123.979
820.109, 81.626
820.591, 23.933
821.073, 9.377
821.556, 55.003
822.038, 97.519
822.520, 96.147
823.002, 62.286
823.484, 50.878
823.966, 62.494
824.448, 71.710
824.930, 49.502
825.413, 23.265
825.895, 25.107
826.377, 56.597
826.859, 80.047
827.341, 75.936
827.823, 70.176
828.305, 71.967
828.787, 80.838
829.269, 93.171
829.752, 109.473
830.234, 116.221
830.716, 92.823
831.198, 59.914
831.680, 62.798
832.162, 97.407
832.644, 121.532
833.127, 103.224
833.609, 74.664
834.091, 50.398
834.573, 33.118
835.055, 23.931
835.537, 19.043
836.019, 24.707
836.501, 51.361
836.983, 93.192
837.466, 117.305
837.948, 124.050
838.430, 117.097
838.912, 88.553
839.394, 58.880
839.876, 47.694
840.358, 53.399
840.840, 56.175
841.322, 57.381
841.805, 49.838
842.287, 24.500
842.769, 14.666
843.251, 21.796
843.733, 9.460
844.215, 39.743
844.697, 43.417
845.179, 33.004
845.661, 39.929
846.144, 59.531
846.626, 69.014
847.108, 35.340
847.590, 7.083
848.072, 17.392
848.554, 63.058
849.036, 99.100
849.518, 128.989
850.000, 141.469
850.483, 124.644
850.965, 89.409
851.447, 86.652
851.929, 112.600
852.411, 127.810
852.893, 97.700
853.375, 56.497
853.857, 41.055
854.340, 44.492
854.822, 40.499
855.304, 4.485
855.786, 26.225
856.268, 6.403
856.750, 74.426
857.232, 94.533
857.714, 60.755
858.196, 28.442
858.679, 19.139
859.161, 28.945
859.643, 44.204
860.125, 61.704
860.607, 82.975
861.089, 122.446
861.571, 156.525
862.054, 174.133
862.536, 174.118
863.018, 163.921
863.500, 137.007
863.982, 116.193
864.464, 105.073
864.946, 104.744
865.428, 125.052
865.910, 159.337
866.393, 181.985
866.875, 182.779
867.357, 169.584
867.839, 137.553
868.321, 98.075
868.803, 70.975
869.285, 69.458
869.767, 69.786
870.250, 70.955
870.732, 73.006
871.214, 78.462
871.696, 86.991
872.178, 84.101
872.660, 63.213
873.142, 41.209
873.624, 37.536
874.106, 44.831
874.589, 52.532
875.071, 59.195
875.553, 62.641
876.035, 56.840
876.517, 51.742
876.999, 56.159
877.481, 71.652
877.963, 77.116
878.445, 67.439
878.928, 59.065
879.410, 82.765
879.892, 119.221
880.374, 130.854
880.856, 106.366
881.338, 84.748
881.820, 94.127
882.302, 108.125
882.784, 103.295
883.267, 70.014
883.749, 44.454
884.231, 25.955
884.713, 20.847
885.195, 30.686
885.677, 53.093
886.159, 98.297
886.641, 165.883
887.123, 205.411
887.606, 142.669
888.088, 72.013
888.570, 70.289
889.052, 152.688
889.534, 188.555
890.016, 149.791
890.498, 113.033
890.981, 122.864
891.463, 169.712
891.945, 195.661
892.427, 200.399
892.909, 201.739
893.391, 211.361
893.873, 219.826
894.355, 212.231
894.837, 192.357
895.320, 188.650
895.802, 217.807
896.284, 250.580
896.766, 288.890
897.248, 321.662
897.730, 297.143
898.212, 217.802
898.694, 161.634
899.177, 181.115
899.659, 216.568
900.141, 198.770
900.623, 145.591
901.105, 96.339
901.587, 62.210
902.069, 39.070
902.551, 28.139
903.033, 26.573
903.516, 33.662
903.998, 50.682
904.480, 51.227
904.962, 25.060
905.444, 3.985
905.926, 5.354
906.408, 10.171
906.890, 23.911
907.372, 27.156
907.855, 37.322
908.337, 77.303
908.819, 113.623
909.301, 113.630
909.783, 67.195
910.265, 37.677
910.747, 28.975
911.229, 30.116
911.711, 34.551
912.194, 40.082
912.676, 43.769
913.158, 45.160
913.640, 41.034
914.122, 21.709
914.604, 7.281
915.086, 18.796
915.568, 59.213
916.050, 42.780
916.533, 15.500
917.015, 57.123
917.497, 45.119
917.979, 13.568
918.461, 22.777
918.943, 25.524
919.425, 20.954
919.907, 28.507
920.390, 69.787
920.872, 72.127
921.354, 45.506
921.836, 25.364
922.318, 10.554
922.800, 6.330
923.282, 16.323
923.764, 33.975
924.247, 52.126
924.729, 67.830
925.211, 73.024
925.693, 46.560
926.175, 32.548
926.657, 65.536
927.139, 116.056
927.621, 138.787
928.104, 125.203
928.586, 109.407
929.068, 93.476
929.550, 79.505
930.032, 70.219
930.514, 65.085
930.996, 64.985
931.478, 73.330
931.960, 73.735
932.443, 50.982
932.925, 22.762
933.407, 3.155
933.889, 9.586
934.371, 6.624
934.853, 19.065
935.335, 40.829
935.817, 35.811
936.299, 10.091
936.782, 13.961
937.264, 0.243
937.746, 14.070
938.228, 22.798
938.710, 25.865
939.192, 25.221
939.674, 19.065
940.156, 5.869
940.638, 23.689
941.121, 48.355
941.603, 11.539
942.085, 10.560
942.567, 23.729
943.049, 3.398
943.531, 12.476
944.013, 10.604
944.495, 0.173
944.978, 30.537
945.460, 60.829
945.942, 61.790
946.424, 21.243
946.906, 2.662
947.388, 2.277
947.870, 5.880
948.352, 25.938
948.834, 33.159
949.317, 38.217
949.799, 7.123
950.281, 15.162
950.763, 24.659
951.245, 9.910
951.727, 22.165
952.209, 16.701
952.692, 2.761
953.174, 34.882
953.656, 81.176
954.138, 60.970
954.620, 15.625
955.102, 5.482
955.584, 30.820
956.066, 89.838
956.548, 248.829
957.031, 363.471
957.513, 365.937
957.995, 301.764
958.477, 278.838
958.959, 299.232
959.441, 343.726
959.923, 415.740
960.405, 488.241
960.888, 523.253
961.370, 536.364
961.852, 550.211
962.334, 559.153
962.816, 593.611
963.298, 689.481
963.780, 781.215
964.262, 807.978
964.744, 766.559
965.227, 738.240
965.709, 727.143
966.191, 712.519
966.673, 678.213
967.155, 630.204
967.637, 566.710
968.119, 489.260
968.601, 429.258
969.083, 395.308
969.566, 377.637
970.048, 377.011
970.530, 389.482
971.012, 403.437
971.494, 417.630
971.976, 418.357
972.458, 383.778
972.940, 354.998
973.422, 370.013
973.905, 412.326
974.387, 447.977
974.869, 474.661
975.351, 499.235
975.833, 526.828
976.315, 546.405
976.797, 544.219
977.279, 523.631
977.761, 492.977
978.244, 448.564
978.726, 411.792
979.208, 403.061
979.690, 402.885
980.172, 398.522
980.654, 389.404
981.136, 368.815
981.619, 330.761
982.101, 301.723
982.583, 312.006
983.065, 331.151
983.547, 268.805
984.029, 151.690
984.511, 73.338
984.993, 121.778
985.475, 165.560
985.958, 141.245
986.440, 87.103
986.922, 71.032
987.404, 101.917
987.886, 97.673
988.368, 36.744
988.850, 27.812
989.332, 18.645
989.815, 18.882
990.297, 17.580
990.779, 45.175
991.261, 70.419
991.743, 41.817
992.225, 34.607
992.707, 54.079
993.189, 78.696
993.671, 38.401
994.154, 0.927
994.636, 23.788
995.118, 29.085
995.600, 24.827
996.082, 8.767
996.564, 10.632
997.046, 5.023
997.528, 41.197
998.010, 88.687
998.493, 135.621
998.975, 175.817
999.457, 191.377
999.939, 191.563
1000.421, 223.007
1000.903, 304.025
1001.385, 384.265
1001.867, 430.617
1002.349, 466.492
1002.832, 512.871
1003.314, 572.014
1003.796, 618.246
1004.278, 650.065
1004.760, 685.646
1005.242, 741.424
1005.724, 806.528
1006.206, 862.242
1006.689, 909.850
1007.171, 950.418
1007.653, 999.358
1008.135, 1025.117
1008.617, 1014.496
1009.099, 983.624
1009.581, 969.323
1010.063, 970.784
1010.545, 942.874
1011.028, 871.908
1011.510, 786.954
1011.992, 698.631
1012.474, 620.036
1012.956, 568.270
1013.438, 556.271
1013.920, 534.987
1014.402, 502.144
1014.885, 460.534
1015.367, 400.915
1015.849, 335.463
1016.331, 316.674
1016.813, 336.148
1017.295, 347.647
1017.777, 317.413
1018.259, 282.925
1018.741, 259.125
1019.224, 245.361
1019.706, 241.660
1020.188, 252.388
1020.670, 246.243
1021.152, 212.351
1021.634, 184.195
1022.116, 202.528
1022.598, 252.399
1023.081, 317.849
1023.563, 400.556
1024.045, 469.746
1024.527, 502.546
1025.009, 538.883
1025.491, 597.654
1025.973, 676.168
1026.455, 762.015
1026.938, 852.574
1027.420, 939.391
1027.902, 991.524
1028.384, 1063.555
1028.866, 1202.654
1029.348, 1386.830
1029.830, 1571.937
1030.312, 1744.933
1030.794, 1943.308
1031.276, 2172.323
1031.759, 2418.045
1032.241, 2638.564
1032.723, 2871.848
1033.205, 3199.009
1033.687, 3635.681
1034.169, 4097.526
1034.651, 4538.876
1035.133, 5011.346
1035.616, 5531.167
1036.098, 6096.452
1036.580, 6712.042
1037.062, 7369.320
1037.544, 7974.096
1038.026, 8498.933
1038.508, 8911.373
1038.990, 9088.891
1039.473, 9153.574
1039.955, 9317.021
1040.437, 10104.886
1040.919, 9985.116
1041.401, 8677.230
1041.883, 7068.927
1042.365, 5967.883
1042.847, 5238.509
1043.329, 4585.962
1043.812, 3992.411
1044.294, 3460.560
1044.776, 3003.727
1045.258, 2610.018
1045.740, 2268.204
1046.222, 1975.842
1046.704, 1727.900
1047.186, 1524.621
1047.668, 1342.084
1048.151, 1169.273
1048.633, 1018.948
1049.115, 916.212
1049.597, 840.123
1050.079, 756.812
1050.561, 644.410
1051.043, 567.106
1051.525, 540.803
1052.008, 526.193
1052.490, 493.813
1052.972, 450.798
1053.454, 418.840
1053.936, 397.221
1054.418, 375.097
1054.900, 333.599
1055.382, 307.687
1055.865, 318.618
1056.347, 350.047
1056.829, 378.103
1057.311, 400.857
1057.793, 401.602
1058.275, 372.421
1058.757, 352.601
1059.239, 292.257
1059.721, 251.190
1060.203, 281.141
1060.686, 292.929
1061.168, 288.182
1061.650, 217.127
1062.132, 231.829
1062.614, 212.611
1063.096, 191.642
1063.578, 199.629
1064.060, 175.226
1064.543, 170.696
1065.025, 191.089
1065.507, 199.991
1065.989, 170.519
1066.471, 136.820
1066.953, 128.376
1067.435, 146.314
1067.917, 195.805
1068.400, 276.194
1068.882, 336.358
1069.364, 300.356
1069.846, 262.979
1070.328, 309.678
1070.810, 427.675
1071.292, 519.905
1071.774, 580.904
1072.256, 626.741
1072.739, 654.728
1073.221, 684.211
1073.703, 757.374
1074.185, 848.265
1074.667, 906.029
1075.149, 908.114
1075.631, 931.146
1076.113, 1016.325
1076.596, 1099.979
1077.078, 1148.920
1077.560, 1169.911
1078.042, 1209.396
1078.524, 1262.748
1079.006, 1299.847
1079.488, 1278.296
1079.970, 1268.374
1080.453, 1332.225
1080.935, 1424.880
1081.417, 1463.410
1081.899, 1426.061
1082.381, 1435.942
1082.863, 1508.064
1083.345, 1591.406
1083.827, 1646.651
1084.309, 1681.391
1084.792, 1703.744
1085.274, 1713.858
1085.756, 1704.401
1086.238, 1644.477
1086.720, 1624.634
1087.202, 1678.563
1087.684, 1765.609
1088.166, 1811.892
1088.648, 1828.682
1089.131, 1849.845
1089.613, 1891.587
1090.095, 1908.394
1090.577, 1846.861
1091.059, 1784.524
1091.541, 1772.490
1092.023, 1801.670
1092.505, 1772.220
1092.988, 1689.269
1093.470, 1604.454
1093.952, 1559.903
1094.434, 1502.362
1094.916, 1378.752
1095.398, 1224.163
1095.880, 1103.430
1096.362, 1034.455
1096.844, 934.929
1097.327, 792.224
1097.809, 665.235
1098.291, 625.520
1098.773, 625.761
1099.255, 607.571
1099.737, 568.140
1100.219, 515.190
1100.701, 434.478
1101.183, 370.880
1101.666, 341.026
1102.148, 323.323
1102.630, 267.533
1103.112, 190.834
1103.594, 127.294
1104.076, 67.704
1104.558, 40.913
1105.040, 66.977
1105.523, 80.220
1106.005, 81.415
1106.487, 34.407
1106.969, 50.375
1107.451, 40.901
1107.933, 30.352
1108.415, 55.536
1108.897, 42.365
1109.380, 35.445
1109.862, 51.214
1110.344, 42.441
1110.826, 6.056
1111.308, 26.760
1111.790, 18.724
1112.272, 5.966
1112.754, 2.981
1113.236, 9.260
1113.719, 33.449
1114.201, 46.961
1114.683, 20.326
1115.165, 20.389
1115.647, 10.494
1116.129, 25.019
1116.611, 50.760
1117.093, 2.461
1117.575, 10.393
1118.058, 44.675
1118.540, 47.095
1119.022, 36.170
1119.504, 9.039
1119.986, 5.487
1120.468, 13.365
1120.950, 46.486
1121.432, 20.976
1121.915, 45.606
1122.397, 3.757
1122.879, 28.557
1123.361, 40.077
1123.843, 24.045
1124.325, 15.909
1124.807, 39.161
1125.289, 45.649
1125.771, 26.151
1126.254, 19.835
1126.736, 24.832
1127.218, 22.012
1127.700, 24.701
1128.182, 6.193
1128.664, 25.187
1129.146, 56.785
1129.628, 97.703
1130.110, 99.120
1130.593, 49.965
1131.075, 2.648
1131.557, 12.826
1132.039, 48.271
1132.521, 74.500
1133.003, 88.364
1133.485, 82.361
1133.967, 35.186
1134.450, 10.318
1134.932, 26.187
1135.414, 55.633
1135.896, 59.836
1136.378, 47.543
1136.860, 38.523
1137.342, 37.145
1137.824, 26.443
1138.307, 21.983
1138.789, 6.362
1139.271, 18.445
1139.753, 0.966
1140.235, 24.141
1140.717, 31.671
1141.199, 32.103
1141.681, 24.387
1142.163, 17.683
1142.646, 14.481
1143.128, 15.307
1143.610, 22.250
1144.092, 34.759
1144.574, 36.905
1145.056, 29.692
1145.538, 24.902
1146.020, 39.953
1146.502, 46.662
1146.985, 23.534
1147.467, 16.539
1147.949, 14.484
1148.431, 63.932
1148.913, 74.665
1149.395, 42.888
1149.877, 5.492
1150.359, 5.895
1150.842, 10.313
1151.324, 13.894
1151.806, 9.300
1152.288, 27.717
1152.770, 39.868
1153.252, 46.755
1153.734, 46.900
1154.216, 45.652
1154.698, 46.863
1155.181, 51.433
1155.663, 60.689
1156.145, 74.829
1156.627, 94.912
1157.109, 130.788
1157.591, 149.426
1158.073, 139.180
1158.555, 113.222
1159.037, 86.323
1159.520, 62.504
1160.002, 48.479
1160.484, 45.237
1160.966, 55.077
1161.448, 88.652
1161.930, 116.799
1162.412, 126.957
1162.894, 121.532
1163.377, 98.708
1163.859, 66.471
1164.341, 49.326
1164.823, 71.773
1165.305, 77.812
1165.787, 39.655
1166.269, 3.737
1166.751, 4.532
1167.234, 9.625
1167.716, 13.555
1168.198, 13.756
1168.680, 1.829
1169.162, 48.722
1169.644, 95.040
1170.126, 70.336
1170.608, 26.548
1171.090, 16.456
1171.573, 36.574
1172.055, 63.756
1172.537, 97.139
1173.019, 120.865
1173.501, 116.645
1173.983, 106.481
1174.465, 91.839
1174.947, 87.859
1175.430, 125.939
1175.912, 205.060
1176.394, 238.914
1176.876, 213.902
1177.358, 178.932
1177.840, 169.532
1178.322, 168.076
1178.804, 159.407
1179.286, 147.095
1179.769, 142.395
1180.251, 115.820
1180.733, 150.252
1181.215, 169.656
1181.697, 175.085
1182.179, 123.687
1182.661, 143.587
1183.143, 133.839
1183.625, 124.083
1184.108, 156.079
1184.590, 140.989
1185.072, 122.833
1185.554, 144.574
1186.036, 173.836
1186.518, 174.442
1187.000, 160.152
1187.482, 147.794
1187.965, 139.012
1188.447, 136.163
1188.929, 140.834
1189.411, 139.416
1189.893, 117.577
1190.375, 94.570
1190.857, 103.336
1191.339, 125.086
1191.822, 125.057
1192.304, 78.237
1192.786, 67.254
1193.268, 99.902
1193.750, 132.147
1194.232, 126.079
1194.714, 105.522
1195.196, 101.324
1195.678, 108.704
1196.161, 112.687
1196.643, 111.487
1197.125, 112.746
1197.607, 122.134
1198.089, 125.558
1198.571, 98.296
1199.053, 66.141
1199.535, 75.857
1200.017, 116.906
1200.500, 135.694
1200.982, 112.771
1201.464, 90.439
1201.946, 70.273
1202.428, 62.270
1202.910, 32.661
1203.392, 87.990
1203.874, 122.712
1204.357, 138.084
1204.839, 76.926
1205.321, 111.827
1205.803, 105.107
1206.285, 93.593
1206.767, 139.198
1207.249, 81.822
1207.731, 130.046
1208.214, 137.751
1208.696, 162.694
1209.178, 141.816
1209.660, 146.459
1210.142, 141.754
1210.624, 119.266
1211.106, 96.844
1211.588, 115.388
1212.070, 151.771
1212.552, 161.846
1213.035, 131.577
1213.517, 116.183
1213.999, 125.086
1214.481, 139.298
1214.963, 152.649
1215.445, 164.803
1215.927, 180.052
1216.409, 191.802
1216.892, 186.070
1217.374, 151.343
1217.856, 127.837
1218.338, 122.341
1218.820, 120.034
1219.302, 116.723
1219.784, 108.475
1220.266, 73.916
1220.749, 31.715
1221.231, 21.156
1221.713, 71.520
1222.195, 114.867
1222.677, 152.437
1223.159, 173.292
1223.641, 161.101
1224.123, 130.360
1224.605, 112.906
1225.088, 104.683
1225.570, 94.596
1226.052, 69.867
1226.534, 61.012
1227.016, 76.255
1227.498, 94.310
1227.980, 101.371
1228.462, 98.873
1228.944, 81.707
1229.427, 60.576
1229.909, 63.367
1230.391, 125.808
1230.873, 150.249
1231.355, 122.216
1231.837, 88.166
1232.319, 98.018
1232.801, 121.710
1233.284, 105.068
1233.766, 61.752
1234.248, 50.787
1234.730, 92.515
1235.212, 143.417
1235.694, 207.428
1236.176, 245.314
1236.658, 182.761
1237.141, 94.690
1237.623, 89.480
1238.105, 152.795
1238.587, 179.807
1239.069, 144.328
1239.551, 130.065
1240.033, 152.423
1240.515, 179.340
1240.997, 171.193
1241.479, 152.841
1241.962, 152.597
1242.444, 169.471
1242.926, 179.364
1243.408, 181.354
1243.890, 179.682
1244.372, 176.608
1244.854, 161.968
1245.336, 87.528
1245.819, 21.107
1246.301, 52.875
1246.783, 171.754
1247.265, 217.206
1247.747, 177.890
1248.229, 139.886
1248.711, 119.507
1249.193, 113.457
1249.676, 66.486
1250.158, 108.523
1250.640, 128.915
1251.122, 128.854
1251.604, 47.067
1252.086, 70.770
1252.568, 52.164
1253.050, 31.805
1253.532, 70.304
1254.015, 0.320
1254.497, 37.861
1254.979, 31.807
1255.461, 15.606
1255.943, 9.754
1256.425, 43.624
1256.907, 71.099
1257.389, 78.954
1257.871, 73.432
1258.354, 32.019
1258.836, 4.219
1259.318, 31.891
1259.800, 99.662
1260.282, 128.886
1260.764, 122.042
1261.246, 87.381
1261.728, 7.419
1262.211, 6.014
1262.693, 16.018
1263.175, 47.346
1263.657, 54.545
1264.139, 8.055
1264.621, 0.619
1265.103, 13.960
1265.585, 8.815
1266.068, 22.319
1266.550, 15.758
1267.032, 0.944
1267.514, 0.044
1267.996, 10.507
1268.478, 7.623
1268.960, 50.080
1269.442, 134.681
1269.924, 167.845
1270.407, 89.657
1270.889, 51.987
1271.371, 88.148
1271.853, 135.328
1272.335, 156.286
1272.817, 165.583
1273.299, 203.004
1273.781, 250.719
1274.264, 274.325
1274.746, 261.933
1275.228, 225.656
1275.710, 142.893
1276.192, 97.076
1276.674, 137.349
1277.156, 205.601
1277.638, 196.011
1278.120, 137.181
1278.603, 101.533
1279.085, 96.465
1279.567, 100.023
1280.049, 107.816
1280.531, 117.505
1281.013, 133.834
1281.495, 143.209
1281.977, 126.218
1282.459, 95.169
1282.942, 65.172
1283.424, 33.034
1283.906, 37.402
1284.388, 76.904
1284.870, 108.133
1285.352, 105.638
1285.834, 86.939
1286.316, 47.340
1286.799, 9.584
1287.281, 0.824
1287.763, 8.004
1288.245, 12.363
1288.727, 0.000
##END=



