##NAMES=Nepheline
##RRUFFID=R060581
##IDEAL CHEMISTRY=NaAlSiO_4_
##LOCALITY=Capo di Bova, Via Appia Antica, Rome, Italy
##OWNER=RRUFF
##SOURCE=Michael Scott
##DESCRIPTION=Colorless hexagonal prisms
##STATUS=The identification of this mineral is confirmed by single-crystal X-ray diffraction and chemical analysis.
##URL=rruff.info/R060581
##MEASURED CHEMISTRY=(Na_0.66_K_0.27_Ca_0.04_)_Î£=0.97_Al_0.98_Si_1.01_O_4_
89.78320, 0.0000000E+00
90.26532, 0.1319580
90.74744, 3.063599
91.22955, 13.38245
91.71167, 28.76843
92.19379, 48.74646
92.67590, 73.31262
93.15802, 91.35474
93.64014, 92.39941
94.12225, 80.24622
94.60437, 73.48364
95.08649, 75.30432
95.56860, 73.04858
96.05072, 70.53796
96.53284, 72.30408
97.01495, 74.06079
97.49707, 68.45618
97.97919, 52.69861
98.46130, 37.87000
98.94342, 24.51562
99.42554, 12.73621
99.90765, 6.224854
100.3898, 6.138672
100.8719, 8.575195
101.3540, 7.863770
101.8361, 3.419922
102.3182, 1.488770
102.8004, 5.838013
103.2825, 9.860107
103.7646, 12.43982
104.2467, 14.12964
104.7288, 14.18848
105.2109, 10.75610
105.6931, 2.957397
106.1752, 7.007324
106.6573, 18.34985
107.1394, 30.40747
107.6215, 44.89648
108.1036, 64.78931
108.5858, 88.27856
109.0679, 104.9117
109.5500, 109.8461
110.0321, 111.9452
110.5142, 115.8662
110.9963, 122.2119
111.4785, 129.7450
111.9606, 138.7377
112.4427, 149.1382
112.9248, 159.2864
113.4069, 168.6302
113.8890, 177.7815
114.3712, 187.4103
114.8533, 197.9729
115.3354, 208.6240
115.8175, 219.7261
116.2996, 231.7269
116.7817, 241.4961
117.2639, 246.6010
117.7460, 249.3762
118.2281, 252.7714
118.7102, 260.5012
119.1923, 267.3510
119.6744, 269.3773
120.1566, 265.2587
120.6387, 260.5258
121.1208, 257.6823
121.6029, 256.5964
122.0850, 257.0648
122.5671, 258.2692
123.0493, 261.1897
123.5314, 267.6519
124.0135, 279.3772
124.4956, 290.9606
124.9777, 297.1689
125.4598, 298.6565
125.9420, 297.8007
126.4241, 294.5298
126.9062, 290.1196
127.3883, 286.9319
127.8704, 285.5759
128.3525, 285.4424
128.8347, 285.8662
129.3168, 286.8444
129.7989, 287.9799
130.2810, 289.3835
130.7631, 290.8145
131.2452, 291.6240
131.7274, 292.1036
132.2095, 291.6609
132.6916, 288.2257
133.1737, 281.5345
133.6558, 273.7780
134.1379, 266.8656
134.6201, 260.8052
135.1022, 255.0735
135.5843, 249.5730
136.0664, 244.3025
136.5485, 239.2655
137.0306, 234.4822
137.5128, 229.8796
137.9949, 224.7732
138.4770, 218.6123
138.9591, 214.7247
139.4412, 215.0687
139.9233, 220.0529
140.4055, 222.8381
140.8876, 223.1602
141.3697, 221.4678
141.8518, 218.1627
142.3339, 212.3016
142.8160, 206.8871
143.2982, 203.1588
143.7803, 201.7836
144.2624, 199.8635
144.7445, 196.7645
145.2266, 193.3403
145.7087, 191.5715
146.1909, 192.4093
146.6730, 193.7603
147.1551, 194.8271
147.6372, 194.7491
148.1193, 195.4081
148.6014, 197.3754
149.0836, 200.2014
149.5657, 202.5278
150.0478, 203.9341
150.5299, 205.0565
151.0120, 206.1990
151.4941, 206.7917
151.9763, 207.9738
152.4584, 210.1156
152.9405, 212.9668
153.4226, 215.5020
153.9047, 217.4163
154.3868, 219.0885
154.8690, 220.7325
155.3511, 222.0562
155.8332, 223.7444
156.3153, 226.2532
156.7974, 229.3539
157.2795, 231.4857
157.7617, 231.4707
158.2438, 231.2003
158.7259, 231.9479
159.2080, 235.5470
159.6901, 238.3700
160.1722, 238.4617
160.6544, 236.0193
161.1365, 234.7800
161.6186, 237.8323
162.1007, 242.0996
162.5828, 244.9561
163.0649, 243.3240
163.5471, 242.2256
164.0292, 244.1108
164.5113, 249.0056
164.9934, 253.7708
165.4755, 257.3792
165.9576, 259.8140
166.4398, 260.9832
166.9219, 259.6355
167.4040, 257.8999
167.8861, 257.3398
168.3682, 258.1101
168.8503, 258.7454
169.3325, 257.9006
169.8146, 256.3752
170.2967, 255.4209
170.7788, 256.5464
171.2609, 258.0183
171.7430, 257.9304
172.2252, 256.0168
172.7073, 254.1753
173.1894, 254.1440
173.6715, 255.3772
174.1536, 256.5234
174.6357, 257.0847
175.1179, 257.2134
175.6000, 256.9741
176.0821, 256.2695
176.5642, 255.6150
177.0463, 255.1609
177.5284, 255.0923
178.0106, 255.9192
178.4927, 258.8865
178.9748, 262.7427
179.4569, 264.8899
179.9390, 264.7451
180.4211, 264.4480
180.9033, 266.6533
181.3854, 271.0742
181.8675, 276.1133
182.3496, 281.2534
182.8317, 286.3301
183.3138, 291.1570
183.7960, 295.4150
184.2781, 300.0447
184.7602, 306.3738
185.2423, 314.3416
185.7244, 322.8027
186.2065, 331.2749
186.6887, 339.7480
187.1708, 348.4033
187.6529, 357.2244
188.1350, 366.1897
188.6171, 374.8970
189.0992, 383.4412
189.5814, 392.2793
190.0635, 401.6128
190.5456, 411.6006
191.0277, 422.2695
191.5098, 433.9019
191.9919, 445.9426
192.4741, 456.6812
192.9562, 465.9954
193.4383, 475.5908
193.9204, 486.9719
194.4025, 499.9727
194.8846, 511.5647
195.3668, 520.7170
195.8489, 529.0066
196.3310, 541.0591
196.8131, 557.4409
197.2952, 573.1460
197.7773, 584.2678
198.2595, 590.5874
198.7416, 598.1045
199.2237, 607.7913
199.7058, 618.7913
200.1879, 628.9917
200.6700, 638.7417
201.1522, 646.7158
201.6343, 651.7864
202.1164, 653.7754
202.5985, 654.7566
203.0806, 654.7744
203.5627, 654.0269
204.0449, 653.3442
204.5270, 653.0269
205.0091, 651.7139
205.4912, 648.3215
205.9733, 642.6040
206.4554, 636.3669
206.9376, 630.3843
207.4197, 623.8745
207.9018, 613.0012
208.3839, 596.3657
208.8660, 578.9189
209.3481, 564.5952
209.8303, 554.3105
210.3124, 542.8440
210.7945, 529.4236
211.2766, 514.5249
211.7587, 499.4863
212.2408, 484.2488
212.7230, 468.9575
213.2051, 453.4714
213.6872, 437.6038
214.1693, 422.0149
214.6514, 406.8838
215.1335, 392.0186
215.6157, 377.2568
216.0978, 362.2141
216.5799, 347.6228
217.0620, 333.7131
217.5441, 320.2166
218.0262, 308.0813
218.5084, 297.7068
218.9905, 288.6526
219.4726, 279.0610
219.9547, 268.1460
220.4368, 257.8586
220.9189, 249.6675
221.4011, 244.2087
221.8832, 239.2397
222.3653, 234.9668
222.8474, 231.1128
223.3295, 225.8967
223.8116, 218.3777
224.2938, 211.1729
224.7759, 206.1157
225.2580, 204.5288
225.7401, 201.8269
226.2222, 197.0457
226.7043, 190.9209
227.1865, 186.4321
227.6686, 184.4453
228.1507, 182.6304
228.6328, 179.8298
229.1149, 176.1675
229.5970, 171.0078
230.0792, 163.6570
230.5613, 155.0620
231.0434, 148.5542
231.5255, 144.5676
232.0076, 141.6450
232.4897, 139.6921
232.9719, 140.7261
233.4540, 138.4880
233.9361, 131.4236
234.4182, 120.9922
234.9003, 112.2175
235.3824, 105.6399
235.8646, 99.94824
236.3467, 94.52612
236.8288, 89.18750
237.3109, 84.65454
237.7930, 81.27637
238.2751, 78.64404
238.7573, 75.52661
239.2394, 71.41064
239.7215, 66.92920
240.2036, 62.42432
240.6857, 57.93701
241.1678, 53.62451
241.6500, 49.35815
242.1321, 45.41626
242.6142, 42.31543
243.0963, 40.23462
243.5784, 38.35498
244.0605, 36.37402
244.5427, 34.29932
245.0248, 32.04443
245.5069, 29.83472
245.9890, 27.74707
246.4711, 25.55420
246.9532, 22.39917
247.4354, 20.08179
247.9175, 19.77441
248.3996, 22.61670
248.8817, 24.05908
249.3638, 23.31812
249.8459, 21.54785
250.3281, 20.98511
250.8102, 22.31006
251.2923, 23.74609
251.7744, 24.55371
252.2565, 24.39966
252.7386, 25.12622
253.2208, 27.16040
253.7029, 29.96143
254.1850, 32.49048
254.6671, 34.04395
255.1492, 36.43921
255.6313, 40.36938
256.1135, 45.94287
256.5956, 52.09106
257.0777, 58.58960
257.5598, 65.32837
258.0419, 72.58008
258.5240, 81.27856
259.0062, 88.34253
259.4883, 92.28296
259.9704, 92.69092
260.4525, 94.95166
260.9346, 99.59497
261.4167, 105.4109
261.8989, 111.2791
262.3810, 117.5996
262.8631, 122.8030
263.3452, 126.0901
263.8273, 127.5793
264.3094, 130.9011
264.7916, 137.1956
265.2737, 143.5676
265.7558, 147.1138
266.2379, 147.2131
266.7200, 146.5593
267.2021, 145.9214
267.6843, 145.1001
268.1664, 141.8462
268.6485, 135.3176
269.1306, 128.0642
269.6127, 122.3879
270.0948, 118.6804
270.5770, 114.5769
271.0591, 109.3174
271.5412, 103.3618
272.0233, 99.24146
272.5054, 97.62085
272.9875, 96.05469
273.4697, 92.69897
273.9518, 87.26025
274.4339, 81.71582
274.9160, 76.36426
275.3981, 71.04932
275.8802, 64.91577
276.3624, 57.75171
276.8445, 51.01099
277.3266, 45.63281
277.8087, 41.67603
278.2908, 38.61743
278.7729, 36.81445
279.2551, 35.46362
279.7372, 32.74219
280.2193, 28.53735
280.7014, 23.68018
281.1835, 17.96558
281.6656, 11.43506
282.1478, 6.976074
282.6299, 5.157959
283.1120, 4.539795
283.5941, 2.436035
284.0762, 1.262939
284.5583, 4.286621
285.0405, 5.439941
285.5226, 4.889160
286.0047, 3.874023
286.4868, 2.169434
286.9689, 0.7912600
287.4510, 1.807617
287.9332, 5.067139
288.4153, 7.272949
288.8974, 6.436035
289.3795, 3.492920
289.8616, 2.029297
290.3438, 2.176025
290.8259, 2.965820
291.3080, 3.433838
291.7901, 3.641846
292.2722, 3.896240
292.7543, 4.141846
293.2365, 4.578369
293.7186, 5.763184
294.2007, 7.704590
294.6828, 9.993164
295.1649, 12.98926
295.6470, 16.16260
296.1292, 17.60620
296.6113, 15.98608
297.0934, 13.31055
297.5755, 12.64258
298.0576, 13.88208
298.5397, 16.05957
299.0219, 19.41211
299.5040, 23.10620
299.9861, 25.26001
300.4682, 25.26562
300.9503, 24.07422
301.4324, 21.94751
301.9146, 19.28247
302.3967, 17.65234
302.8788, 19.34399
303.3609, 22.28589
303.8430, 23.26001
304.3251, 21.44873
304.8073, 19.12646
305.2894, 18.50854
305.7715, 19.04980
306.2536, 19.33594
306.7357, 18.60278
307.2178, 17.34839
307.7000, 16.12036
308.1821, 15.00977
308.6642, 13.79932
309.1463, 11.97363
309.6284, 10.04688
310.1105, 8.750977
310.5927, 9.295654
311.0748, 10.00464
311.5569, 9.397217
312.0390, 7.454102
312.5211, 5.827637
313.0032, 6.195068
313.4854, 7.010254
313.9675, 6.648193
314.4496, 2.846436
314.9317, 0.7583010
315.4138, 2.328857
315.8959, 2.132324
316.3781, 1.799561
316.8602, 1.978760
317.3423, 2.351318
317.8244, 2.681641
318.3065, 2.892822
318.7886, 3.113281
319.2708, 3.584473
319.7529, 4.103516
320.2350, 4.119385
320.7171, 1.949219
321.1992, 0.3110350
321.6813, 0.8073730
322.1635, 4.905029
322.6456, 8.144043
323.1277, 8.993164
323.6098, 8.521240
324.0919, 8.540771
324.5740, 9.338379
325.0562, 10.60596
325.5383, 12.58350
326.0204, 15.76685
326.5025, 17.66138
326.9846, 16.63306
327.4667, 14.87402
327.9489, 14.73950
328.4310, 17.71973
328.9131, 20.77295
329.3952, 23.73657
329.8773, 26.65039
330.3594, 28.69019
330.8416, 28.85791
331.3237, 28.97412
331.8058, 30.36230
332.2879, 33.92822
332.7700, 37.17651
333.2521, 39.42480
333.7343, 41.13281
334.2164, 44.76440
334.6985, 51.20190
335.1806, 58.02515
335.6627, 64.00317
336.1448, 68.88013
336.6270, 73.24121
337.1091, 76.46143
337.5912, 79.56738
338.0733, 85.06836
338.5554, 93.56421
339.0375, 102.2915
339.5197, 110.0994
340.0018, 116.8384
340.4839, 124.0618
340.9660, 131.5593
341.4481, 139.6067
341.9302, 148.2759
342.4124, 157.5752
342.8945, 167.2822
343.3766, 177.6753
343.8587, 188.5247
344.3408, 199.2334
344.8229, 209.6467
345.3051, 220.2129
345.7872, 231.9148
346.2693, 244.3987
346.7514, 255.4460
347.2335, 264.1758
347.7156, 271.7656
348.1978, 280.6497
348.6799, 290.6572
349.1620, 299.8542
349.6441, 306.8035
350.1262, 312.0330
350.6083, 316.9360
351.0905, 321.9929
351.5726, 325.8472
352.0547, 326.5146
352.5368, 324.5881
353.0189, 321.8870
353.5010, 319.5391
353.9832, 316.9070
354.4653, 313.5906
354.9474, 309.6472
355.4295, 304.0698
355.9116, 294.7217
356.3937, 283.3525
356.8759, 272.6873
357.3580, 264.0725
357.8401, 256.1904
358.3222, 248.4109
358.8043, 240.7803
359.2864, 233.3569
359.7686, 225.1326
360.2507, 217.6155
360.7328, 212.0986
361.2149, 209.7283
361.6970, 207.8582
362.1791, 205.2610
362.6613, 202.5134
363.1434, 200.7908
363.6255, 200.8069
364.1076, 201.5266
364.5897, 202.4038
365.0718, 202.9629
365.5540, 204.9004
366.0361, 209.0547
366.5182, 214.5537
367.0003, 220.3884
367.4824, 226.7441
367.9645, 233.1536
368.4467, 238.8750
368.9288, 243.6697
369.4109, 251.0615
369.8930, 262.3608
370.3751, 275.4648
370.8572, 288.9797
371.3394, 302.6760
371.8215, 316.9658
372.3036, 332.2273
372.7857, 348.2935
373.2678, 364.4778
373.7499, 380.0144
374.2321, 396.9854
374.7142, 416.3389
375.1963, 438.6316
375.6784, 461.3401
376.1605, 483.9705
376.6426, 507.4128
377.1248, 532.5967
377.6069, 560.1973
378.0890, 586.9722
378.5711, 610.6582
379.0532, 632.2202
379.5353, 657.3738
380.0175, 686.8328
380.4996, 718.1597
380.9817, 749.7983
381.4638, 781.5273
381.9459, 812.6724
382.4280, 842.2500
382.9102, 871.8044
383.3923, 903.6284
383.8744, 937.8403
384.3565, 973.0103
384.8386, 1008.478
385.3207, 1044.105
385.8029, 1077.980
386.2850, 1109.940
386.7671, 1141.877
387.2492, 1176.027
387.7313, 1211.917
388.2134, 1247.801
388.6956, 1283.219
389.1777, 1317.594
389.6598, 1350.800
390.1419, 1382.702
390.6240, 1413.165
391.1061, 1442.474
391.5883, 1470.562
392.0704, 1497.499
392.5525, 1523.431
393.0346, 1548.100
393.5167, 1573.152
393.9988, 1597.397
394.4810, 1617.806
394.9631, 1629.297
395.4452, 1639.829
395.9273, 1654.562
396.4094, 1677.190
396.8915, 1694.020
397.3737, 1699.167
397.8558, 1698.219
398.3379, 1698.054
398.8200, 1701.635
399.3021, 1703.454
399.7842, 1702.102
400.2664, 1697.547
400.7485, 1692.442
401.2306, 1686.870
401.7127, 1680.601
402.1948, 1673.443
402.6769, 1665.068
403.1591, 1656.400
403.6412, 1647.426
404.1233, 1638.211
404.6054, 1628.618
405.0875, 1618.548
405.5696, 1608.692
406.0518, 1599.715
406.5339, 1591.722
407.0160, 1582.005
407.4981, 1570.230
407.9802, 1558.158
408.4623, 1548.511
408.9445, 1541.232
409.4266, 1532.567
409.9087, 1521.779
410.3908, 1508.961
410.8729, 1494.229
411.3550, 1477.564
411.8372, 1459.411
412.3193, 1439.353
412.8014, 1417.934
413.2835, 1396.464
413.7656, 1375.165
414.2477, 1352.933
414.7299, 1329.096
415.2120, 1303.398
415.6941, 1275.958
416.1762, 1247.388
416.6583, 1216.204
417.1404, 1179.568
417.6226, 1137.348
418.1047, 1096.034
418.5868, 1059.838
419.0689, 1025.744
419.5510, 990.2603
420.0331, 951.7939
420.5153, 913.0610
420.9974, 876.3774
421.4795, 840.6611
421.9616, 804.4795
422.4437, 765.1235
422.9258, 726.8923
423.4080, 691.8831
423.8901, 660.6055
424.3722, 630.0579
424.8543, 599.9451
425.3364, 570.5085
425.8185, 542.0237
426.3007, 512.9370
426.7828, 486.8142
427.2649, 465.4744
427.7470, 448.0566
428.2291, 427.7117
428.7112, 402.4980
429.1934, 377.9661
429.6755, 356.7668
430.1576, 339.3428
430.6397, 322.9932
431.1218, 307.6829
431.6039, 293.2371
432.0861, 279.3047
432.5682, 265.9587
433.0503, 252.8782
433.5324, 239.5317
434.0145, 226.3816
434.4966, 215.6213
434.9788, 207.3750
435.4609, 199.1653
435.9430, 187.4651
436.4251, 173.9949
436.9072, 163.9392
437.3893, 158.8589
437.8715, 155.7214
438.3536, 151.2607
438.8357, 145.8826
439.3178, 140.7358
439.7999, 135.7732
440.2820, 131.7014
440.7642, 129.7866
441.2463, 130.0544
441.7284, 129.7803
442.2105, 127.0620
442.6926, 123.1558
443.1747, 119.2246
443.6569, 114.6252
444.1390, 111.0872
444.6211, 109.4846
445.1032, 109.4058
445.5853, 109.7017
446.0674, 110.4580
446.5496, 111.3716
447.0317, 112.4048
447.5138, 113.6504
447.9959, 114.8333
448.4780, 115.2971
448.9601, 116.2932
449.4423, 119.3132
449.9244, 125.8630
450.4065, 131.2812
450.8886, 134.3110
451.3707, 135.7285
451.8528, 138.8872
452.3350, 143.8955
452.8171, 150.3130
453.2992, 158.3958
453.7813, 168.1665
454.2634, 177.1101
454.7455, 184.9070
455.2277, 192.7297
455.7098, 202.4661
456.1919, 213.7654
456.6740, 225.2808
457.1561, 236.5508
457.6382, 247.5820
458.1204, 257.5198
458.6025, 266.6934
459.0846, 276.7551
459.5667, 289.0034
460.0488, 302.8713
460.5309, 317.9958
461.0131, 334.5681
461.4952, 351.3474
461.9773, 367.1348
462.4594, 382.3618
462.9415, 397.8862
463.4236, 416.1060
463.9058, 432.5237
464.3879, 446.4624
464.8700, 457.3794
465.3521, 462.9934
465.8342, 461.4988
466.3163, 455.5090
466.7985, 446.5574
467.2806, 435.4600
467.7627, 419.7239
468.2448, 398.0635
468.7269, 372.4590
469.2090, 345.3152
469.6912, 315.7671
470.1733, 285.6472
470.6554, 254.7412
471.1375, 223.2935
471.6196, 194.0361
472.1017, 166.5081
472.5839, 142.2683
473.0660, 122.8301
473.5481, 108.3669
474.0302, 93.10034
474.5123, 76.06689
474.9944, 59.62036
475.4766, 48.13916
475.9587, 40.92529
476.4408, 33.23730
476.9229, 22.17847
477.4050, 10.42114
477.8871, 2.399902
478.3693, 2.247314
478.8514, 5.801514
479.3335, 9.305420
479.8156, 12.57227
480.2977, 15.53320
480.7798, 18.37842
481.2620, 20.41260
481.7441, 21.07007
482.2262, 20.68970
482.7083, 19.78711
483.1904, 18.08398
483.6725, 16.42725
484.1547, 15.05933
484.6368, 14.05200
485.1189, 13.62012
485.6010, 14.22290
486.0831, 15.17334
486.5652, 16.20459
487.0474, 17.94214
487.5295, 18.27319
488.0116, 16.73877
488.4937, 14.12280
488.9758, 11.38574
489.4579, 8.348389
489.9401, 6.149658
490.4222, 5.150635
490.9043, 5.055176
491.3864, 4.696289
491.8685, 4.011719
492.3506, 3.666504
492.8328, 4.509277
493.3149, 6.138916
493.7970, 6.605225
494.2791, 5.571777
494.7612, 4.318115
495.2433, 4.630127
495.7255, 5.779785
496.2076, 6.048828
496.6897, 4.294678
497.1718, 2.175781
497.6539, 0.9501950
498.1360, 0.3842770
498.6182, 1.1475000E-02
499.1003, 0.3212890
499.5824, 0.7341310
500.0645, 0.6923830
500.5466, 6.7139000E-02
501.0287, 0.7749020
501.5109, 1.924805
501.9930, 3.213379
502.4751, 4.429932
502.9572, 5.624268
503.4393, 6.539063
503.9214, 6.388184
504.4036, 5.797119
504.8857, 7.408447
505.3678, 13.28369
505.8499, 17.91772
506.3320, 18.69189
506.8141, 15.29150
507.2963, 12.60376
507.7784, 10.56421
508.2605, 9.411133
508.7426, 9.691162
509.2247, 11.30469
509.7068, 12.71143
510.1890, 13.67651
510.6711, 14.19263
511.1532, 14.16577
511.6353, 13.62256
512.1174, 12.76807
512.5995, 10.94653
513.0817, 9.227539
513.5638, 9.228760
514.0459, 10.90356
514.5280, 12.56494
515.0101, 13.48535
515.4922, 13.73608
515.9744, 13.25635
516.4565, 11.41602
516.9386, 10.14185
517.4207, 10.75854
517.9028, 12.23950
518.3849, 12.88550
518.8671, 11.16553
519.3492, 9.950195
519.8313, 9.947754
520.3134, 11.07251
520.7955, 12.23511
521.2776, 13.36377
521.7598, 14.58398
522.2419, 16.26123
522.7240, 18.82202
523.2061, 19.11621
523.6882, 16.30151
524.1703, 12.87744
524.6525, 12.26587
525.1346, 14.32300
525.6167, 17.00659
526.0988, 20.52344
526.5809, 23.49927
527.0630, 22.41309
527.5452, 17.98315
528.0273, 14.21021
528.5094, 13.54248
528.9915, 14.77612
529.4736, 17.07690
529.9557, 20.44043
530.4379, 23.05493
530.9200, 23.29736
531.4021, 22.49194
531.8842, 21.94775
532.3663, 22.27246
532.8484, 22.38013
533.3306, 22.29077
533.8127, 21.74072
534.2948, 20.17041
534.7769, 15.03687
535.2590, 11.79419
535.7411, 12.53247
536.2233, 17.06152
536.7054, 19.22949
537.1875, 18.25098
537.6696, 16.41162
538.1517, 15.22705
538.6339, 14.81079
539.1160, 13.88013
539.5981, 12.35156
540.0802, 10.68604
540.5623, 9.280762
541.0444, 8.206543
541.5266, 7.635498
542.0087, 7.619629
542.4908, 8.048584
542.9729, 9.125000
543.4550, 10.54175
543.9371, 11.35962
544.4193, 10.62573
544.9014, 9.296387
545.3835, 7.879639
545.8656, 6.437500
546.3477, 6.308594
546.8298, 9.643555
547.3120, 13.62354
547.7941, 15.82886
548.2762, 14.20557
548.7583, 12.93188
549.2404, 12.63062
549.7225, 12.77612
550.2047, 12.44385
550.6868, 11.32373
551.1689, 10.15503
551.6510, 9.344727
552.1331, 8.816895
552.6152, 7.249512
553.0974, 4.256836
553.5795, 1.853760
554.0616, 2.389160
554.5437, 5.223877
555.0258, 5.366699
555.5079, 2.186035
555.9901, 1.116211
556.4722, 1.025879
556.9543, 1.397461
557.4364, 4.133545
557.9185, 7.211182
558.4006, 9.495117
558.8828, 9.484131
559.3649, 7.953857
559.8470, 6.732910
560.3291, 5.744873
560.8112, 5.799561
561.2933, 7.729004
561.7755, 11.51685
562.2576, 14.44263
562.7397, 15.24731
563.2218, 15.71777
563.7039, 16.80298
564.1860, 19.07471
564.6682, 20.50024
565.1503, 20.98877
565.6324, 20.86011
566.1145, 20.44141
566.5966, 19.75293
567.0787, 19.10693
567.5609, 18.61621
568.0430, 18.28687
568.5251, 17.87671
569.0072, 17.49902
569.4893, 17.83105
569.9714, 19.57300
570.4536, 22.11401
570.9357, 24.59863
571.4178, 27.01831
571.8999, 29.57910
572.3820, 32.80884
572.8641, 35.88086
573.3463, 37.82544
573.8284, 37.88501
574.3105, 38.37524
574.7926, 40.46826
575.2747, 43.19849
575.7568, 45.32275
576.2390, 47.55029
576.7211, 47.86597
577.2032, 44.70557
577.6853, 39.61255
578.1674, 38.23486
578.6495, 41.90649
579.1317, 45.41846
579.6138, 46.48755
580.0959, 45.44360
580.5780, 45.04370
581.0601, 45.40088
581.5422, 45.27173
582.0244, 43.31909
582.5065, 40.07373
582.9886, 36.77417
583.4707, 33.47852
583.9528, 31.16309
584.4349, 30.81909
584.9171, 31.93677
585.3992, 33.73877
585.8813, 37.80127
586.3634, 40.45239
586.8455, 38.86914
587.3276, 34.61206
587.8098, 31.95020
588.2919, 32.74292
588.7740, 34.05249
589.2561, 35.12500
589.7382, 35.95166
590.2203, 36.63745
590.7025, 37.27515
591.1846, 37.41138
591.6667, 36.68726
592.1488, 35.07520
592.6309, 33.00854
593.1130, 30.36157
593.5952, 28.11230
594.0773, 28.08643
594.5594, 29.54395
595.0415, 29.68140
595.5236, 27.40381
596.0057, 24.38062
596.4879, 21.72534
596.9700, 19.84326
597.4521, 19.57690
597.9342, 22.96338
598.4163, 26.42896
598.8984, 28.43091
599.3806, 29.05396
599.8627, 28.55322
600.3448, 25.14819
600.8269, 21.87549
601.3090, 20.29443
601.7911, 20.85986
602.2733, 21.64038
602.7554, 22.75195
603.2375, 23.65088
603.7196, 23.85181
604.2017, 23.37402
604.6838, 22.90552
605.1660, 22.42285
605.6481, 22.11963
606.1302, 22.29126
606.6123, 22.92261
607.0944, 23.94238
607.5765, 25.77783
608.0587, 27.52832
608.5408, 27.78931
609.0229, 26.96899
609.5050, 26.62451
609.9871, 28.23584
610.4692, 29.94604
610.9514, 30.38257
611.4335, 29.36963
611.9156, 28.80835
612.3977, 29.64990
612.8798, 30.59741
613.3619, 30.72046
613.8441, 29.25684
614.3262, 29.11572
614.8083, 31.57104
615.2904, 33.99170
615.7725, 32.39868
616.2546, 26.48364
616.7368, 21.70752
617.2189, 19.17065
617.7010, 18.12085
618.1831, 17.66724
618.6652, 17.65259
619.1473, 17.35425
619.6295, 15.98706
620.1116, 14.45020
620.5937, 13.68823
621.0758, 13.57153
621.5579, 13.50586
622.0400, 13.29614
622.5222, 12.94116
623.0043, 12.33350
623.4864, 11.35449
623.9685, 10.69556
624.4506, 10.12427
624.9327, 10.11621
625.4149, 11.33887
625.8970, 14.95801
626.3791, 15.94702
626.8612, 13.37549
627.3433, 9.433838
627.8254, 7.060303
628.3076, 6.205566
628.7897, 5.877197
629.2718, 5.894775
629.7539, 6.216553
630.2360, 7.246094
630.7181, 8.618164
631.2003, 9.123779
631.6824, 7.609375
632.1645, 5.447754
632.6466, 3.367188
633.1287, 1.469971
633.6108, 0.2414550
634.0930, 4.9072001E-02
634.5751, 0.3913570
635.0572, 1.202148
635.5393, 2.681152
636.0214, 3.452148
636.5035, 3.164063
636.9857, 2.566162
637.4678, 2.315186
637.9499, 2.540527
638.4320, 1.803955
638.9141, 0.3874510
639.3962, 2.457275
639.8784, 1.913330
640.3605, 0.6977540
640.8426, 3.162842
641.3247, 5.071289
641.8068, 6.202393
642.2889, 6.023438
642.7711, 4.926270
643.2532, 3.804199
643.7353, 2.664551
644.2174, 1.989014
644.6995, 2.447754
645.1816, 3.789307
645.6638, 4.342285
646.1459, 3.386719
646.6280, 2.035889
647.1101, 0.3671880
647.5922, 1.716064
648.0743, 2.526611
648.5565, 1.850586
649.0386, 0.5585940
649.5207, 0.9418950
650.0028, 2.526123
650.4849, 3.081787
650.9670, 2.355225
651.4492, 1.521240
651.9313, 2.427246
652.4134, 4.002686
652.8955, 4.089111
653.3776, 1.628418
653.8597, 1.149902
654.3419, 3.326660
654.8240, 4.761963
655.3061, 5.233154
655.7882, 2.921143
656.2703, 1.538818
656.7524, 2.760254
657.2346, 5.428223
657.7167, 5.993408
658.1988, 3.279541
658.6809, 1.079834
659.1630, 1.032959
659.6451, 2.604492
660.1273, 2.499023
660.6094, 0.6552730
661.0915, 1.447510
661.5736, 2.872803
662.0557, 3.809570
662.5378, 4.604492
663.0200, 5.249512
663.5021, 5.802246
663.9842, 6.075684
664.4663, 6.386719
664.9484, 7.040283
665.4305, 8.180420
665.9127, 9.440918
666.3948, 11.09375
666.8769, 12.67822
667.3590, 13.54199
667.8411, 12.05737
668.3232, 13.63477
668.8054, 19.99316
669.2875, 28.12427
669.7696, 32.51709
670.2517, 33.09741
670.7338, 33.33154
671.2159, 34.29053
671.6981, 35.30762
672.1802, 34.67310
672.6623, 32.93994
673.1444, 32.12915
673.6265, 33.91309
674.1086, 36.51392
674.5908, 38.56372
675.0729, 40.18823
675.5550, 42.47681
676.0371, 47.92407
676.5192, 52.19067
677.0013, 52.77905
677.4835, 49.20557
677.9656, 47.77759
678.4477, 49.28979
678.9298, 51.53052
679.4119, 53.07080
679.8940, 53.91895
680.3762, 54.33984
680.8583, 54.29492
681.3404, 54.05054
681.8225, 53.96484
682.3046, 53.85938
682.7867, 53.28589
683.2689, 51.93066
683.7510, 50.82837
684.2331, 51.53027
684.7152, 52.67236
685.1973, 52.48242
685.6794, 48.31860
686.1616, 45.44629
686.6437, 45.68042
687.1258, 47.58838
687.6079, 48.69336
688.0900, 48.82422
688.5721, 48.49805
689.0543, 47.66089
689.5364, 46.50977
690.0185, 45.72266
690.5006, 45.25757
690.9827, 44.57959
691.4648, 42.86426
691.9470, 41.00659
692.4291, 41.08984
692.9112, 42.62329
693.3933, 42.93384
693.8754, 39.20947
694.3575, 34.87036
694.8397, 32.08301
695.3218, 31.12744
695.8039, 30.75488
696.2860, 31.25171
696.7681, 31.91919
697.2502, 32.48657
697.7324, 33.23706
698.2145, 33.46313
698.6966, 33.12427
699.1787, 32.10547
699.6608, 29.19116
700.1429, 25.18628
700.6251, 24.60474
701.1072, 28.52271
701.5893, 32.93994
702.0714, 33.55347
702.5535, 32.17261
703.0356, 31.55688
703.5178, 33.38257
703.9999, 34.42505
704.4820, 32.49756
704.9641, 29.26221
705.4462, 27.27417
705.9283, 27.24634
706.4105, 27.75024
706.8926, 29.05029
707.3747, 30.54248
707.8568, 30.77417
708.3389, 29.63867
708.8210, 28.27441
709.3032, 27.01880
709.7853, 26.09033
710.2674, 26.31445
710.7495, 27.39087
711.2316, 27.98047
711.7137, 26.63452
712.1959, 25.00195
712.6780, 24.40649
713.1601, 24.78076
713.6422, 25.23169
714.1243, 25.39087
714.6064, 25.45264
715.0886, 25.59180
715.5707, 25.93384
716.0528, 25.62476
716.5349, 24.36548
717.0170, 23.05273
717.4991, 22.17017
717.9813, 21.77710
718.4634, 22.05835
718.9455, 23.00244
719.4276, 23.94580
719.9097, 24.33496
720.3918, 24.38574
720.8740, 24.21997
721.3561, 23.74878
721.8382, 23.71655
722.3203, 25.22363
722.8024, 26.85913
723.2845, 27.34155
723.7667, 25.30127
724.2488, 24.29248
724.7309, 24.82715
725.2130, 25.80664
725.6951, 25.99512
726.1772, 25.36157
726.6594, 24.34204
727.1415, 22.90625
727.6236, 21.42798
728.1057, 20.55737
728.5878, 20.06055
729.0699, 19.31689
729.5521, 18.09595
730.0342, 16.64844
730.5163, 14.91846
730.9984, 13.13647
731.4805, 11.70654
731.9626, 11.23779
732.4448, 10.51758
732.9269, 8.879639
733.4090, 6.950439
733.8911, 6.437256
734.3732, 7.434082
734.8553, 9.705566
735.3375, 14.21436
735.8196, 19.12817
736.3017, 18.77344
736.7838, 13.84717
737.2659, 9.417480
737.7480, 8.188232
738.2302, 8.753418
738.7123, 10.96118
739.1944, 14.16675
739.6765, 15.43018
740.1586, 10.87476
740.6407, 6.803467
741.1229, 6.362305
741.6050, 9.382568
742.0871, 11.80249
742.5692, 13.51343
743.0513, 14.95142
743.5334, 16.31030
744.0156, 17.60913
744.4977, 19.26587
744.9798, 21.29883
745.4619, 22.07935
745.9440, 18.27002
746.4261, 13.53467
746.9083, 13.03369
747.3904, 17.27417
747.8725, 21.34937
748.3546, 23.42358
748.8367, 24.10254
749.3188, 23.26465
749.8010, 19.88452
750.2831, 19.01367
750.7652, 22.25220
751.2473, 25.45581
751.7294, 24.67358
752.2115, 19.98413
752.6937, 17.55396
753.1758, 17.97168
753.6579, 19.22437
754.1400, 19.75024
754.6221, 19.60376
755.1042, 18.84473
755.5864, 17.50854
756.0685, 15.68066
756.5506, 12.87866
757.0327, 9.934570
757.5148, 7.727051
757.9969, 5.965332
758.4791, 5.717285
758.9612, 7.831787
759.4433, 10.49048
759.9254, 11.23511
760.4075, 9.947510
760.8896, 9.011475
761.3718, 8.760742
761.8539, 8.929688
762.3360, 9.841797
762.8181, 10.81470
763.3002, 10.36475
763.7823, 7.516846
764.2645, 4.136719
764.7466, 0.1440430
765.2287, 3.860840
765.7108, 4.860107
766.1929, 7.9590000E-02
766.6750, 3.747559
767.1572, 6.006104
767.6393, 7.115967
768.1214, 7.673828
768.6035, 7.636719
769.0856, 7.763916
769.5677, 8.327637
770.0499, 8.955322
770.5320, 8.984619
771.0141, 8.578857
771.4962, 8.203857
771.9783, 8.292480
772.4604, 8.157471
772.9426, 7.349121
773.4247, 6.037598
773.9068, 4.618408
774.3889, 2.710938
774.8710, 1.306641
775.3531, 0.5986330
775.8353, 0.5158690
776.3174, 0.9182130
776.7995, 1.840088
777.2816, 3.087891
777.7637, 5.098389
778.2458, 6.895996
778.7280, 6.485840
779.2101, 4.417725
779.6922, 2.440674
780.1743, 0.6181640
780.6564, 0.1884770
781.1385, 1.464600
781.6207, 4.819580
782.1028, 6.294678
782.5849, 4.455322
783.0670, 2.636963
783.5491, 1.432861
784.0313, 0.9194340
784.5134, 1.878906
784.9955, 4.324951
785.4776, 6.075195
785.9597, 5.487305
786.4418, 4.020020
786.9240, 4.320068
787.4061, 5.852539
787.8882, 6.666016
788.3703, 4.613525
788.8524, 2.710693
789.3345, 2.989746
789.8167, 5.093262
790.2988, 5.547363
790.7809, 2.735107
791.2630, 1.439697
791.7451, 4.534668
792.2272, 10.23242
792.7094, 9.365723
793.1915, 2.254883
793.6736, 3.370850
794.1557, 0.9646000
794.6378, 4.125000
795.1199, 4.887695
795.6021, 2.099854
796.0842, 0.4067380
796.5663, 0.9050290
797.0484, 0.9057620
797.5305, 1.417725
798.0126, 2.239990
798.4948, 0.9086910
798.9769, 3.986328
799.4590, 7.492432
799.9411, 6.911865
800.4232, 3.490723
800.9053, 2.038818
801.3875, 2.409912
801.8696, 3.067383
802.3517, 2.794922
802.8338, 2.585693
803.3159, 3.587158
803.7980, 5.614014
804.2802, 7.487061
804.7623, 9.351807
805.2444, 10.32520
805.7265, 9.353271
806.2086, 6.852295
806.6907, 7.070068
807.1729, 10.58838
807.6550, 14.17993
808.1371, 16.79663
808.6192, 18.17773
809.1013, 16.80298
809.5834, 13.33765
810.0656, 10.66870
810.5477, 12.04126
811.0298, 13.75586
811.5119, 12.88062
811.9940, 9.770508
812.4761, 7.645020
812.9583, 7.773193
813.4404, 8.087646
813.9225, 8.035645
814.4046, 7.701416
814.8867, 7.521729
815.3688, 7.540039
815.8510, 7.346191
816.3331, 5.763672
816.8152, 4.335938
817.2973, 6.471924
817.7794, 11.26318
818.2615, 15.20093
818.7437, 15.23926
819.2258, 15.25879
819.7079, 17.95752
820.1900, 22.59619
820.6721, 23.70435
821.1542, 19.41064
821.6364, 15.72559
822.1185, 14.66772
822.6006, 15.47266
823.0827, 16.82153
823.5648, 18.64355
824.0469, 19.03125
824.5291, 14.33716
825.0112, 8.738281
825.4933, 6.924316
825.9754, 7.970459
826.4575, 8.487305
826.9396, 6.118164
827.4218, 4.996826
827.9039, 6.809326
828.3860, 10.31616
828.8681, 11.79736
829.3502, 11.01953
829.8323, 9.953125
830.3145, 8.936279
830.7966, 7.964600
831.2787, 7.607422
831.7608, 7.898193
832.2429, 8.473633
832.7250, 8.879883
833.2072, 9.256592
833.6893, 10.43823
834.1714, 11.87012
834.6535, 11.93506
835.1356, 9.861572
835.6177, 7.760010
836.0999, 5.850586
836.5820, 4.263184
837.0641, 2.828613
837.5462, 1.692627
838.0283, 2.699463
838.5104, 7.278076
838.9926, 12.67603
839.4747, 16.58081
839.9568, 18.95972
840.4389, 19.79980
840.9210, 16.26904
841.4031, 14.59229
841.8853, 18.26855
842.3674, 23.41772
842.8495, 23.84619
843.3316, 17.96558
843.8137, 15.74170
844.2958, 19.82129
844.7780, 25.30200
845.2601, 24.11816
845.7422, 18.71460
846.2243, 15.18823
846.7064, 16.05884
847.1885, 16.84106
847.6707, 14.03149
848.1528, 10.17285
848.6349, 8.349609
849.1170, 10.78271
849.5991, 11.72192
850.0812, 10.54248
850.5634, 8.843506
851.0455, 8.824463
851.5276, 10.10229
852.0097, 9.829834
852.4918, 7.383057
852.9739, 4.943115
853.4561, 4.160645
853.9382, 4.677979
854.4203, 6.369873
854.9024, 9.782959
855.3845, 12.35181
855.8666, 12.80444
856.3488, 12.92578
856.8309, 13.89771
857.3130, 15.87939
857.7951, 16.71021
858.2772, 16.14160
858.7593, 15.62915
859.2415, 16.93726
859.7236, 18.92993
860.2057, 19.73511
860.6878, 19.18115
861.1699, 18.08105
861.6520, 16.58887
862.1342, 14.90283
862.6163, 13.00342
863.0984, 10.91406
863.5805, 9.398682
864.0626, 8.535889
864.5447, 8.294189
865.0269, 9.566650
865.5090, 11.42041
865.9911, 9.423584
866.4732, 4.265625
866.9553, 0.4482420
867.4374, 1.931152
867.9196, 4.763916
868.4017, 6.152100
868.8838, 6.242920
869.3659, 7.131836
869.8480, 9.944092
870.3301, 11.80493
870.8123, 11.69507
871.2944, 10.04077
871.7765, 7.960693
872.2586, 5.543213
872.7407, 3.978760
873.2228, 3.886963
873.7050, 4.758789
874.1871, 7.331299
874.6692, 10.37256
875.1513, 11.22998
875.6334, 6.747070
876.1155, 2.959229
876.5977, 1.103027
877.0798, 0.4902340
877.5619, 1.2207000E-02
878.0440, 0.3610840
878.5261, 0.9499510
879.0082, 2.036133
879.4904, 2.879150
879.9725, 1.290771
880.4546, 0.8940430
880.9367, 4.0038999E-02
881.4188, 7.645752
881.9009, 12.88452
882.3831, 10.44629
882.8652, 5.415527
883.3473, 2.822510
883.8294, 2.874512
884.3115, 4.786133
884.7936, 9.088623
885.2758, 13.04980
885.7579, 13.30176
886.2400, 11.17358
886.7221, 9.949951
887.2042, 10.09888
887.6863, 9.313721
888.1685, 4.502197
888.6506, 0.3688960
889.1327, 1.825928
889.6148, 1.011963
890.0969, 1.180420
890.5790, 2.210693
891.0612, 5.789551
891.5433, 7.280029
892.0254, 7.269775
892.5075, 8.224854
892.9896, 9.951660
893.4717, 11.17627
893.9539, 10.08276
894.4360, 9.149414
894.9181, 10.56567
895.4002, 13.89307
895.8823, 15.92188
896.3644, 15.62061
896.8466, 15.86792
897.3287, 17.88379
897.8108, 20.72021
898.2929, 21.68921
898.7750, 21.06787
899.2571, 20.42139
899.7393, 20.37622
900.2214, 20.53174
900.7035, 20.03101
901.1856, 19.60303
901.6677, 20.46875
902.1498, 24.43188
902.6320, 27.42212
903.1141, 28.64258
903.5962, 29.35767
904.0783, 31.34082
904.5604, 34.48511
905.0425, 37.63916
905.5247, 40.78296
906.0068, 42.95703
906.4889, 41.62280
906.9710, 39.71802
907.4531, 41.03882
907.9352, 47.60400
908.4174, 52.15649
908.8995, 53.14453
909.3816, 52.63550
909.8637, 51.36914
910.3458, 49.34180
910.8279, 49.08984
911.3101, 50.62085
911.7922, 52.33838
912.2743, 53.02539
912.7564, 53.24463
913.2385, 53.71948
913.7206, 54.36646
914.2028, 54.50049
914.6849, 52.90210
915.1670, 51.95361
915.6491, 52.55933
916.1312, 54.33838
916.6133, 55.94360
917.0955, 57.41675
917.5776, 58.33667
918.0597, 58.76074
918.5418, 58.32324
919.0239, 55.72021
919.5060, 52.04834
919.9882, 49.44604
920.4703, 49.78906
920.9524, 49.58130
921.4345, 47.36060
921.9166, 44.94360
922.3987, 44.79541
922.8809, 47.03174
923.3630, 49.11426
923.8451, 50.83276
924.3272, 51.71655
924.8093, 50.74463
925.2914, 48.95264
925.7736, 47.59497
926.2557, 46.99316
926.7378, 45.58203
927.2199, 41.66870
927.7020, 38.14307
928.1841, 36.73120
928.6663, 37.46338
929.1484, 37.28760
929.6305, 36.19434
930.1126, 34.81006
930.5947, 33.49585
931.0768, 32.12622
931.5590, 30.32275
932.0411, 28.24048
932.5232, 26.62988
933.0053, 25.94238
933.4874, 25.49536
933.9695, 25.32568
934.4517, 25.06079
934.9338, 23.64990
935.4159, 21.08838
935.8980, 19.11401
936.3801, 18.53833
936.8622, 17.89795
937.3444, 15.18555
937.8265, 11.58911
938.3086, 8.529053
938.7907, 5.548584
939.2728, 3.980225
939.7549, 5.544922
940.2371, 7.792236
940.7192, 8.313477
941.2013, 6.845459
941.6834, 6.562500
942.1655, 7.498779
942.6476, 8.159424
943.1298, 6.583008
943.6119, 4.880615
944.0940, 5.544434
944.5761, 8.579834
945.0582, 11.31372
945.5403, 12.93042
946.0225, 14.81250
946.5046, 17.53735
946.9867, 20.53735
947.4688, 21.70728
947.9509, 21.33838
948.4330, 22.37549
948.9152, 27.09033
949.3973, 31.85522
949.8794, 31.54346
950.3615, 29.17993
950.8436, 30.13794
951.3257, 39.83667
951.8079, 46.90698
952.2900, 49.32227
952.7721, 50.86401
953.2542, 56.58594
953.7363, 65.87793
954.2184, 73.84497
954.7006, 79.84009
955.1827, 86.20850
955.6648, 95.64575
956.1469, 105.9292
956.6290, 114.8772
957.1111, 122.1155
957.5933, 130.0107
958.0754, 138.2834
958.5575, 148.0547
959.0396, 160.4558
959.5217, 174.4353
960.0038, 186.7214
960.4860, 197.4370
960.9681, 207.2649
961.4502, 213.8574
961.9323, 222.2976
962.4144, 237.7046
962.8965, 256.6873
963.3787, 271.2195
963.8608, 279.1648
964.3429, 287.9001
964.8250, 298.7578
965.3071, 309.6594
965.7892, 316.7544
966.2714, 321.6665
966.7535, 329.2683
967.2356, 340.9077
967.7177, 350.7114
968.1998, 354.5149
968.6819, 355.8875
969.1641, 356.8577
969.6462, 357.4097
970.1283, 359.3862
970.6104, 362.9756
971.0925, 367.0403
971.5746, 371.7515
972.0568, 376.0630
972.5389, 377.8381
973.0210, 377.5671
973.5031, 376.8359
973.9852, 375.3296
974.4673, 374.6528
974.9495, 375.2539
975.4316, 376.9587
975.9137, 380.0024
976.3958, 384.5598
976.8779, 387.4482
977.3600, 387.8713
977.8422, 387.8010
978.3243, 389.0308
978.8064, 391.2524
979.2885, 394.1824
979.7706, 397.9272
980.2527, 401.6880
980.7349, 405.1807
981.2170, 408.8621
981.6991, 412.9124
982.1812, 417.2820
982.6633, 421.4956
983.1454, 425.5786
983.6276, 430.2178
984.1097, 436.4395
984.5918, 442.7285
985.0739, 448.4255
985.5560, 453.1948
986.0381, 456.0112
986.5203, 456.3228
987.0024, 455.7029
987.4845, 453.6982
987.9666, 452.1677
988.4487, 454.6448
988.9308, 459.8113
989.4130, 463.8774
989.8951, 466.2056
990.3772, 467.6890
990.8593, 468.4307
991.3414, 468.8967
991.8235, 469.4104
992.3057, 469.9939
992.7878, 470.5115
993.2699, 470.9485
993.7520, 471.5840
994.2341, 473.0322
994.7162, 474.3909
995.1984, 474.1484
995.6805, 472.4602
996.1626, 469.7864
996.6447, 465.3101
997.1268, 461.1458
997.6089, 458.4802
998.0911, 455.7024
998.5732, 450.5732
999.0553, 443.0862
999.5374, 434.8438
1000.020, 426.3789
1000.502, 415.8250
1000.984, 399.6245
1001.466, 381.7292
1001.948, 366.1418
1002.430, 353.6384
1002.912, 340.9895
1003.394, 328.3633
1003.876, 314.1191
1004.359, 296.9224
1004.841, 278.2786
1005.323, 263.2043
1005.805, 251.0530
1006.287, 239.7952
1006.769, 228.6411
1007.251, 217.7292
1007.733, 206.6160
1008.216, 196.0437
1008.698, 187.3894
1009.180, 181.4907
1009.662, 174.1333
1010.144, 164.7961
1010.626, 155.6562
1011.108, 150.1741
1011.590, 145.8584
1012.072, 137.7966
1012.555, 125.9670
1013.037, 117.2874
1013.519, 117.1873
1014.001, 117.1511
1014.483, 114.6416
1014.965, 110.0674
1015.447, 104.2036
1015.929, 97.15991
1016.411, 90.89014
1016.894, 86.36523
1017.376, 82.24731
1017.858, 77.37085
1018.340, 72.27661
1018.822, 67.72388
1019.304, 63.92725
1019.786, 60.43872
1020.268, 57.49023
1020.751, 54.34009
1021.233, 49.71509
1021.715, 44.61694
1022.197, 42.19019
1022.679, 42.06055
1023.161, 41.78784
1023.643, 40.00244
1024.125, 37.96216
1024.607, 35.57983
1025.090, 33.45435
1025.572, 33.32227
1026.054, 35.36084
1026.536, 35.92627
1027.018, 33.99634
1027.500, 31.85547
1027.982, 32.37842
1028.464, 33.80835
1028.947, 33.98096
1029.429, 32.24170
1029.911, 31.19946
1030.393, 31.94336
1030.875, 31.71875
1031.357, 28.19043
1031.839, 23.09448
1032.321, 22.94189
1032.803, 26.81274
1033.286, 30.63550
1033.768, 32.75464
1034.250, 34.00073
1034.732, 34.17603
1035.214, 33.93872
1035.696, 34.20093
1036.178, 34.97363
1036.660, 36.14404
1037.143, 37.81812
1037.625, 38.78125
1038.107, 37.03418
1038.589, 34.39575
1039.071, 33.39697
1039.553, 34.04883
1040.035, 33.97827
1040.517, 32.36646
1041.000, 30.38062
1041.482, 28.14282
1041.964, 26.01172
1042.446, 25.41772
1042.928, 25.87280
1043.410, 25.25928
1043.892, 22.75781
1044.374, 19.82495
1044.856, 17.17139
1045.339, 14.74048
1045.821, 12.40234
1046.303, 10.12598
1046.785, 8.341064
1047.267, 7.052490
1047.749, 6.312012
1048.231, 7.029785
1048.713, 7.729736
1049.195, 5.969238
1049.677, 2.555420
1050.160, 7.0800997E-02
1050.642, 1.630615
1051.124, 1.596191
1051.606, 0.7734380
1052.088, 3.682617
1052.570, 4.733887
1053.052, 4.232666
1053.534, 2.984375
1054.017, 1.029785
1054.499, 4.6875000E-02
1054.981, 1.855713
1055.463, 3.948730
1055.945, 4.676514
1056.427, 4.121094
1056.909, 2.282959
1057.391, 0.9494630
1057.874, 3.743652
1058.356, 5.288330
1058.838, 6.438477
1059.320, 9.099121
1059.802, 11.63843
1060.284, 11.50391
1060.766, 6.119629
1061.248, 3.136963
1061.730, 3.427490
1062.213, 4.744141
1062.695, 5.805908
1063.177, 6.591309
1063.659, 7.211426
1064.141, 7.714355
1064.623, 7.499756
1065.105, 5.905518
1065.587, 3.836426
1066.070, 0.8686520
1066.552, 1.903076
1067.034, 2.292969
1067.516, 0.1813960
1067.998, 0.1965330
1068.480, 3.019531
1068.962, 5.425537
1069.444, 3.655762
1069.927, 0.9431150
1070.409, 0.5913090
1070.891, 2.839111
1071.373, 3.499512
1071.855, 1.822021
1072.337, 0.4267580
1072.819, 4.8340000E-02
1073.301, 0.5351560
1073.783, 3.640869
1074.266, 7.822510
1074.748, 9.645264
1075.230, 6.979492
1075.712, 5.122314
1076.194, 5.569336
1076.676, 6.825195
1077.158, 8.258057
1077.640, 9.883545
1078.122, 11.83130
1078.604, 13.93188
1079.087, 15.03906
1079.569, 13.25708
1080.051, 11.67676
1080.533, 11.99097
1081.015, 13.70801
1081.497, 16.21265
1081.979, 20.01294
1082.461, 21.80493
1082.944, 21.00537
1083.426, 20.19556
1083.908, 22.48364
1084.390, 25.79028
1084.872, 27.59839
1085.354, 27.88965
1085.836, 28.36230
1086.318, 29.66162
1086.801, 30.49097
1087.283, 30.51392
1087.765, 29.99341
1088.247, 29.24780
1088.729, 28.47485
1089.211, 28.28613
1089.693, 28.44385
1090.175, 27.77881
1090.657, 23.81323
1091.140, 21.04492
1091.622, 22.71191
1092.104, 27.94824
1092.586, 29.06934
1093.068, 26.37744
1093.550, 23.99780
1094.032, 24.38062
1094.514, 24.73853
1094.997, 22.51880
1095.479, 19.34863
1095.961, 17.33813
1096.443, 16.62891
1096.925, 17.05298
1097.407, 18.81104
1097.889, 20.39185
1098.371, 20.14258
1098.854, 19.35156
1099.336, 19.76440
1099.818, 21.09790
1100.300, 22.13965
1100.782, 22.78174
1101.264, 22.68555
1101.746, 21.52002
1102.228, 20.20508
1102.710, 20.34302
1103.193, 21.26343
1103.675, 20.93555
1104.157, 19.11938
1104.639, 17.97778
1105.121, 19.98486
1105.603, 21.04663
1106.085, 19.19116
1106.567, 15.52783
1107.049, 13.05933
1107.531, 11.81055
1108.014, 12.45435
1108.496, 15.56396
1108.978, 18.96069
1109.460, 21.39844
1109.942, 23.15576
1110.424, 24.59595
1110.906, 25.77539
1111.388, 25.21167
1111.871, 22.75171
1112.353, 20.69775
1112.835, 20.67969
1113.317, 21.05273
1113.799, 20.08228
1114.281, 18.30737
1114.763, 16.47754
1115.245, 13.89453
1115.728, 13.46411
1116.210, 16.18726
1116.692, 18.14185
1117.174, 14.08325
1117.656, 7.883057
1118.138, 7.573975
1118.620, 12.21069
1119.102, 15.80884
1119.584, 16.44604
1120.067, 14.65039
1120.549, 8.848633
1121.031, 3.171875
1121.513, 4.621826
1121.995, 10.82544
1122.477, 13.59009
1122.959, 12.25806
1123.441, 10.14453
1123.924, 8.666748
1124.406, 7.069824
1124.888, 4.422607
1125.370, 1.655518
1125.852, 2.182129
1126.334, 5.679688
1126.816, 7.390869
1127.298, 5.994873
1127.781, 4.086914
1128.263, 3.523926
1128.745, 3.422607
1129.227, 3.051514
1129.709, 2.407959
1130.191, 1.679443
1130.673, 0.8837890
1131.155, 0.2421880
1131.637, 2.127197
1132.120, 3.920898
1132.602, 5.005371
1133.084, 5.303955
1133.566, 4.533203
1134.048, 2.298828
1134.530, 0.6127930
1135.012, 0.2988280
1135.494, 1.483643
1135.976, 4.519775
1136.458, 7.672119
1136.941, 7.258301
1137.423, 4.759521
1137.905, 3.770508
1138.387, 7.718262
1138.869, 9.297607
1139.351, 7.291748
1139.833, 4.721436
1140.315, 4.436279
1140.798, 5.875244
1141.280, 8.247559
1141.762, 11.26050
1142.244, 13.42212
1142.726, 13.63916
1143.208, 13.49365
1143.690, 13.33838
1144.172, 13.06250
1144.655, 13.09473
1145.137, 12.93262
1145.619, 9.274414
1146.101, 1.702881
1146.583, 3.181641
1147.065, 0.6567380
1147.547, 5.605957
1148.029, 8.793945
1148.511, 10.17578
1148.994, 8.745850
1149.476, 4.927979
1149.958, 2.344971
1150.440, 1.720703
1150.922, 2.869385
1151.404, 7.169189
1151.886, 11.86084
1152.368, 14.92310
1152.851, 16.39868
1153.333, 16.80493
1153.815, 16.09033
1154.297, 15.44995
1154.779, 15.11426
1155.261, 15.37769
1155.743, 17.75879
1156.225, 20.15942
1156.708, 19.61133
1157.190, 15.43091
1157.672, 13.32983
1158.154, 13.49463
1158.636, 14.43848
1159.118, 16.38940
1159.600, 17.62134
1160.082, 15.02808
1160.564, 10.77612
1161.047, 8.751221
1161.529, 10.87402
1162.011, 11.99658
1162.493, 12.00513
1162.975, 11.58862
1163.457, 11.12329
1163.939, 10.64819
1164.421, 10.15552
1164.903, 9.673096
1165.385, 9.264160
1165.868, 8.009766
1166.350, 8.866455
1166.832, 12.84595
1167.314, 16.57080
1167.796, 15.85278
1168.278, 12.72168
1168.760, 10.09229
1169.242, 8.320801
1169.725, 8.321045
1170.207, 13.08813
1170.689, 15.49023
1171.171, 13.75122
1171.653, 10.66602
1172.135, 10.25342
1172.617, 11.52026
1173.099, 12.29443
1173.582, 12.33398
1174.064, 12.13428
1174.546, 10.94336
1175.028, 10.85278
1175.510, 12.84521
1175.992, 15.57251
1176.474, 16.03149
1176.956, 14.87402
1177.438, 14.14429
1177.921, 14.26025
1178.403, 14.31738
1178.885, 12.96704
1179.367, 12.81689
1179.849, 15.57056
1180.331, 19.71460
1180.813, 20.60229
1181.295, 18.87329
1181.778, 16.50049
1182.260, 13.38696
1182.742, 12.08423
1183.224, 16.12256
1183.706, 19.88330
1184.188, 19.76929
1184.670, 16.72412
1185.152, 16.21118
1185.635, 17.84644
1186.117, 19.88818
1186.599, 22.16089
1187.081, 23.62646
1187.563, 23.42749
1188.045, 22.42114
1188.527, 21.08032
1189.009, 19.44629
1189.491, 18.01392
1189.974, 16.86719
1190.456, 16.57642
1190.938, 18.34448
1191.420, 19.96191
1191.902, 20.47681
1192.384, 20.28369
1192.866, 19.75244
1193.348, 18.87207
1193.830, 17.20166
1194.313, 14.86597
1194.795, 13.84692
1195.277, 16.93750
1195.759, 19.83862
1196.241, 19.81763
1196.723, 18.51953
1197.205, 18.48633
1197.687, 19.82324
1198.169, 17.54004
1198.652, 11.63965
1199.134, 6.585693
1199.616, 5.705811
1200.098, 6.347412
1200.580, 7.892822
1201.062, 9.554443
1201.544, 9.987305
1202.026, 9.158936
1202.509, 8.594727
1202.991, 8.420654
1203.473, 8.489990
1203.955, 7.742676
1204.437, 7.773682
1204.919, 11.72046
1205.401, 17.17529
1205.883, 18.82300
1206.365, 16.53735
1206.848, 14.11060
1207.330, 11.96582
1207.812, 10.34692
1208.294, 8.945557
1208.776, 8.574463
1209.258, 10.64209
1209.740, 13.97998
1210.222, 15.31616
1210.705, 14.66235
1211.187, 13.65186
1211.669, 12.54443
1212.151, 11.76611
1212.633, 12.90356
1213.115, 13.47339
1213.597, 10.46729
1214.079, 5.412354
1214.562, 4.058105
1215.044, 6.342529
1215.526, 8.422363
1216.008, 9.346191
1216.490, 10.39600
1216.972, 13.24829
1217.454, 15.95312
1217.936, 16.58350
1218.418, 15.63257
1218.901, 15.98291
1219.383, 17.55054
1219.865, 18.51953
1220.347, 18.31421
1220.829, 17.49976
1221.311, 15.90088
1221.793, 14.37891
1222.275, 13.50000
1222.757, 13.25879
1223.240, 13.93311
1223.722, 15.40405
1224.204, 15.87231
1224.686, 14.68750
1225.168, 12.68555
1225.650, 9.279297
1226.132, 6.409424
1226.614, 5.738525
1227.096, 6.982910
1227.579, 7.543701
1228.061, 7.497070
1228.543, 7.058594
1229.025, 5.704834
1229.507, 5.348633
1229.989, 8.817383
1230.471, 12.16992
1230.953, 12.05664
1231.436, 8.916016
1231.918, 7.003418
1232.400, 6.158203
1232.882, 5.501953
1233.364, 4.719482
1233.846, 3.936035
1234.328, 2.703857
1234.810, 2.015869
1235.292, 2.834229
1235.775, 4.934814
1236.257, 6.548096
1236.739, 7.675781
1237.221, 8.282715
1237.703, 8.216553
1238.185, 7.881592
1238.667, 6.751709
1239.149, 6.113037
1239.632, 7.408203
1240.114, 10.06836
1240.596, 10.55127
1241.078, 9.317139
1241.560, 8.314209
1242.042, 9.294189
1242.524, 9.217773
1243.006, 6.265137
1243.489, 3.463867
1243.971, 3.214600
1244.453, 5.091309
1244.935, 7.981934
1245.417, 11.54639
1245.899, 14.46558
1246.381, 15.98511
1246.863, 17.17285
1247.345, 18.48145
1247.828, 19.10693
1248.310, 18.24731
1248.792, 16.22559
1249.274, 12.37866
1249.756, 7.986816
1250.238, 7.229492
1250.720, 17.83594
1251.202, 21.82373
1251.684, 15.53442
1252.167, 8.299072
1252.649, 9.428467
1253.131, 14.63477
1253.613, 15.33472
1254.095, 12.70923
1254.577, 11.21802
1255.059, 13.53833
1255.541, 13.49365
1256.023, 9.841553
1256.506, 6.936035
1256.988, 10.16943
1257.470, 15.43335
1257.952, 17.25610
1258.434, 16.17749
1258.916, 13.86914
1259.398, 9.140137
1259.880, 7.936279
1260.363, 11.10938
1260.845, 14.93091
1261.327, 17.67505
1261.809, 18.29004
1262.291, 13.99878
1262.773, 6.952881
1263.255, 2.998047
1263.737, 3.097168
1264.219, 2.308594
1264.702, 0.2416990
1265.184, 1.778809
1265.666, 3.431885
1266.148, 3.971191
1266.630, 1.688721
1267.112, 1.794922
1267.594, 3.018555
1268.076, 1.833008
1268.559, 0.8718260
1269.041, 0.3698730
1269.523, 0.1132810
1270.005, 0.2714840
1270.487, 0.2509770
1270.969, 1.181152
1271.451, 2.770996
1271.933, 2.224854
1272.416, 0.1579590
1272.898, 0.1101070
1273.380, 3.057617
1273.862, 5.709717
1274.344, 5.755127
1274.826, 5.897461
1275.308, 7.246826
1275.790, 8.988037
1276.272, 10.35596
1276.755, 11.24707
1277.237, 11.15942
1277.719, 10.14795
1278.201, 8.710938
1278.683, 6.113037
1279.165, 4.613770
1279.647, 4.816406
1280.129, 5.779297
1280.611, 6.640869
1281.094, 7.382813
1281.576, 8.159912
1282.058, 8.835938
1282.540, 8.718262
1283.022, 7.030273
1283.504, 5.328613
1283.986, 2.552002
1284.468, 0.9404300
1284.950, 4.567383
1285.433, 9.414551
1285.915, 11.64697
1286.397, 11.51416
1286.879, 10.72266
1287.361, 8.794922
1287.843, 8.302246
1288.325, 9.679199
1288.807, 11.08960
1289.290, 11.39160
1289.772, 10.71338
1290.254, 8.170166
1290.736, 5.015625
1291.218, 4.119873
1291.700, 5.662842
1292.182, 7.062256
1292.664, 8.108887
1293.146, 8.494385
1293.629, 7.764648
1294.111, 6.577637
1294.593, 4.998047
1295.075, 3.386719
1295.557, 2.040283
1296.039, 1.031494
1296.521, 1.268555
1297.003, 2.571289
1297.486, 3.467773
1297.968, 3.693115
1298.450, 3.167969
1298.932, 1.664795
1299.414, 0.1523440
1299.896, 8.7158002E-02
1300.378, 0.5407710
1300.860, 0.8771970
1301.343, 0.1496580
1301.825, 0.0000000E+00
##END=



