##NAMES=Potassic-magnesio-fluoro-arfvedsonite
##RRUFFID=R060915
##IDEAL CHEMISTRY=KNa_2_(Mg_4_Fe^3+^)Si_8_O_22_F_2_
##LOCALITY=Kipawa, Quebec, Canada
##OWNER=RRUFF
##SOURCE=Royal Ontario Museum
##DESCRIPTION=Dark blue-green amphibole with pronounced cleavage, associated with white albite and red eudialyte
##STATUS=The identification of this mineral has been confirmed by X-ray diffraction and chemical analysis
##URL=rruff.info/R060915
##MEASURED CHEMISTRY=(K_0.44_Na_0.41_[box]_0.15_)_Σ=1_(Na_1.79_Ca_0.21_)_Σ=2_(Mg_3.10_Fe^3+^_0.82_Fe^2+^_0.54_Ca_0.27_Mn_0.15_Al_0.11_Ti_0.01_)_Σ=5_Si_8.00_O_22_(F_1.52_(OH)_0.48_)_Σ=2_
152.8606, 0.0000000E+00
153.3427, 5.887939
153.8248, 13.49170
154.3069, 18.35767
154.7890, 4.910156
155.2712, 0.6499020
155.7533, 13.93311
156.2354, 32.72314
156.7175, 41.56055
157.1996, 22.24878
157.6817, 2.452881
158.1639, 13.01343
158.6460, 13.18848
159.1281, 36.88501
159.6102, 43.48657
160.0923, 31.68579
160.5744, 19.89771
161.0566, 4.175537
161.5387, 5.510498
162.0208, 2.156006
162.5029, 49.44165
162.9850, 100.7136
163.4671, 136.5505
163.9493, 152.2322
164.4314, 168.1860
164.9135, 196.7483
165.3956, 231.7036
165.8777, 262.8564
166.3598, 281.4268
166.8420, 297.2905
167.3241, 318.2122
167.8062, 346.9771
168.2883, 376.0249
168.7704, 400.7832
169.2525, 422.3821
169.7346, 443.5728
170.2168, 468.7515
170.6989, 492.9592
171.1810, 511.6765
171.6631, 525.3621
172.1452, 531.0244
172.6273, 521.0754
173.1095, 498.9543
173.5916, 478.6831
174.0737, 472.0964
174.5558, 472.4106
175.0379, 470.0476
175.5201, 463.7092
176.0022, 452.3130
176.4843, 432.4529
176.9664, 404.9697
177.4485, 376.6040
177.9306, 349.8674
178.4128, 326.2249
178.8949, 308.5024
179.3770, 300.7559
179.8591, 297.5554
180.3412, 289.9177
180.8233, 277.7175
181.3055, 264.9163
181.7876, 256.0586
182.2697, 249.8027
182.7518, 241.1101
183.2339, 221.7227
183.7160, 199.5962
184.1982, 196.1616
184.6803, 212.8708
185.1624, 237.2539
185.6445, 260.9712
186.1266, 282.4888
186.6087, 293.9998
187.0908, 278.4702
187.5730, 247.3831
188.0551, 249.9768
188.5372, 292.2878
189.0193, 349.3225
189.5014, 389.0981
189.9835, 412.4968
190.4657, 431.1440
190.9478, 447.3755
191.4299, 462.4102
191.9120, 484.7065
192.3941, 515.6445
192.8762, 551.7617
193.3584, 587.2734
193.8405, 621.9690
194.3226, 658.4465
194.8047, 702.0264
195.2868, 752.0000
195.7689, 788.0789
196.2511, 805.8638
196.7332, 813.2937
197.2153, 826.9875
197.6974, 847.1262
198.1795, 872.6572
198.6616, 905.1633
199.1438, 945.4548
199.6259, 982.0154
200.1080, 1013.297
200.5901, 1040.496
201.0722, 1066.719
201.5543, 1092.306
202.0364, 1115.943
202.5186, 1136.388
203.0007, 1153.313
203.4828, 1168.726
203.9649, 1182.303
204.4470, 1194.498
204.9291, 1207.416
205.4113, 1221.201
205.8934, 1234.993
206.3755, 1246.169
206.8576, 1252.439
207.3397, 1268.065
207.8218, 1299.840
208.3040, 1344.123
208.7861, 1372.927
209.2682, 1381.370
209.7503, 1383.917
210.2324, 1393.960
210.7145, 1413.558
211.1967, 1432.031
211.6788, 1449.348
212.1609, 1465.207
212.6430, 1467.734
213.1251, 1449.181
213.6072, 1430.322
214.0894, 1433.407
214.5715, 1466.872
215.0536, 1500.667
215.5357, 1527.408
216.0178, 1547.151
216.4999, 1572.435
216.9820, 1604.329
217.4642, 1637.604
217.9463, 1667.366
218.4284, 1693.396
218.9105, 1713.688
219.3926, 1726.239
219.8747, 1730.506
220.3569, 1739.095
220.8390, 1754.550
221.3211, 1772.415
221.8032, 1788.833
222.2853, 1807.819
222.7674, 1817.117
223.2496, 1809.623
223.7317, 1780.782
224.2138, 1763.603
224.6959, 1760.353
225.1780, 1765.278
225.6601, 1772.486
226.1423, 1787.668
226.6244, 1796.901
227.1065, 1794.729
227.5886, 1778.111
228.0707, 1762.046
228.5528, 1746.193
229.0350, 1731.041
229.5171, 1717.659
229.9992, 1707.303
230.4813, 1695.416
230.9634, 1681.159
231.4455, 1664.789
231.9276, 1644.420
232.4098, 1620.490
232.8919, 1592.236
233.3740, 1558.314
233.8561, 1513.048
234.3382, 1471.411
234.8203, 1438.080
235.3025, 1414.800
235.7846, 1396.191
236.2667, 1390.466
236.7488, 1385.344
237.2309, 1355.487
237.7130, 1282.815
238.1952, 1214.963
238.6773, 1170.405
239.1594, 1159.552
239.6415, 1139.634
240.1236, 1105.974
240.6057, 1065.169
241.0879, 1029.818
241.5700, 1003.245
242.0521, 977.5513
242.5342, 949.6345
243.0163, 917.6670
243.4984, 888.6348
243.9806, 863.2192
244.4627, 840.3081
244.9448, 817.3518
245.4269, 791.9360
245.9090, 769.9360
246.3911, 754.7373
246.8732, 751.4653
247.3554, 738.8538
247.8375, 709.1799
248.3196, 673.3713
248.8017, 656.8635
249.2838, 676.7825
249.7659, 688.5227
250.2481, 672.4692
250.7302, 614.4119
251.2123, 570.1562
251.6944, 544.6099
252.1765, 530.8066
252.6586, 513.7947
253.1408, 491.0742
253.6229, 469.7449
254.1050, 453.5146
254.5871, 446.4717
255.0692, 431.7344
255.5513, 404.3958
256.0334, 372.0771
256.5156, 350.4553
256.9977, 344.3979
257.4798, 339.9812
257.9619, 330.7227
258.4440, 312.7656
258.9261, 303.4807
259.4083, 308.4509
259.8904, 318.3220
260.3725, 313.6602
260.8546, 289.5781
261.3367, 260.3689
261.8188, 228.9355
262.3010, 190.6038
262.7831, 168.3550
263.2652, 168.0212
263.7473, 179.0688
264.2294, 181.4854
264.7115, 172.7012
265.1937, 161.3186
265.6758, 151.3970
266.1579, 144.4353
266.6400, 130.8420
267.1221, 107.1025
267.6042, 80.31079
268.0864, 65.84595
268.5685, 69.16528
269.0506, 68.79517
269.5327, 52.85059
270.0148, 17.08179
270.4969, 2.451416
270.9791, 0.8937990
271.4612, 10.83740
271.9433, 15.30981
272.4254, 11.82129
272.9075, 3.946777
273.3896, 9.042725
273.8718, 27.83130
274.3539, 40.50024
274.8360, 46.65283
275.3181, 47.56885
275.8002, 43.59204
276.2823, 33.41577
276.7645, 25.53394
277.2466, 23.12573
277.7287, 26.30615
278.2108, 32.16406
278.6929, 41.16821
279.1750, 52.01953
279.6572, 64.43311
280.1393, 79.02905
280.6214, 89.54272
281.1035, 94.23022
281.5856, 93.08130
282.0677, 83.78271
282.5499, 64.15381
283.0320, 42.92236
283.5141, 32.12329
283.9962, 32.00391
284.4783, 31.76147
284.9604, 27.27246
285.4425, 19.32642
285.9247, 13.52466
286.4068, 10.38306
286.8889, 6.864258
287.3710, 6.9824003E-02
287.8531, 10.39209
288.3352, 23.64868
288.8174, 41.55835
289.2995, 62.08130
289.7816, 78.40894
290.2637, 90.18091
290.7458, 98.31445
291.2279, 99.92310
291.7101, 96.81885
292.1922, 100.6379
292.6743, 118.7007
293.1564, 144.0339
293.6385, 157.1060
294.1206, 157.3694
294.6028, 160.6533
295.0849, 187.0415
295.5670, 229.5374
296.0491, 263.8401
296.5312, 281.8101
297.0133, 288.8369
297.4955, 289.8440
297.9776, 285.4387
298.4597, 285.2102
298.9418, 298.2036
299.4239, 321.0593
299.9060, 347.1003
300.3882, 377.2844
300.8703, 406.2439
301.3524, 424.6785
301.8345, 433.6948
302.3166, 441.2427
302.7987, 451.8882
303.2809, 464.7988
303.7630, 479.5833
304.2451, 497.6648
304.7272, 514.3215
305.2093, 521.3213
305.6914, 521.3306
306.1736, 524.6758
306.6557, 540.8962
307.1378, 562.7234
307.6199, 582.5535
308.1020, 600.5986
308.5841, 613.3318
309.0663, 615.4724
309.5484, 609.8862
310.0305, 604.0176
310.5126, 602.8157
310.9947, 602.4895
311.4768, 599.6704
311.9590, 593.4258
312.4411, 586.3335
312.9232, 578.5364
313.4053, 571.0654
313.8874, 566.0168
314.3695, 561.1318
314.8517, 561.0613
315.3337, 575.4058
315.8159, 611.1909
316.2980, 627.8606
316.7801, 586.2026
317.2622, 519.6987
317.7443, 475.0105
318.2264, 488.6489
318.7086, 510.3379
319.1907, 519.7627
319.6728, 514.7053
320.1549, 504.9568
320.6370, 485.9790
321.1191, 466.5989
321.6013, 455.8247
322.0834, 463.0098
322.5655, 471.8953
323.0476, 478.2661
323.5297, 481.8745
324.0118, 485.5386
324.4940, 490.1235
324.9761, 494.6194
325.4582, 498.2466
325.9403, 505.4971
326.4224, 506.7539
326.9045, 497.3740
327.3867, 478.2373
327.8688, 463.2039
328.3509, 454.2744
328.8330, 448.2886
329.3151, 443.6130
329.7972, 443.0271
330.2794, 438.3672
330.7615, 425.4253
331.2436, 406.7371
331.7257, 395.5823
332.2078, 402.4128
332.6899, 405.7195
333.1721, 393.3220
333.6542, 350.3071
334.1363, 326.0830
334.6184, 328.7134
335.1005, 346.7168
335.5826, 353.7395
336.0648, 346.0789
336.5469, 334.1531
337.0290, 320.0930
337.5111, 301.4988
337.9932, 293.2197
338.4753, 300.2048
338.9575, 312.0781
339.4396, 309.9644
339.9217, 289.6421
340.4038, 277.1589
340.8859, 284.7258
341.3680, 310.6155
341.8502, 327.1248
342.3323, 332.3472
342.8144, 333.1677
343.2965, 337.9939
343.7786, 346.8867
344.2607, 351.9023
344.7429, 348.4363
345.2250, 340.2803
345.7071, 340.7046
346.1892, 350.0974
346.6713, 362.9387
347.1534, 375.1072
347.6355, 386.6804
348.1176, 397.6733
348.5998, 405.4153
349.0819, 415.6353
349.5640, 444.9221
350.0461, 491.5518
350.5282, 531.1189
351.0103, 535.0891
351.4925, 521.2000
351.9746, 527.3108
352.4567, 565.3271
352.9388, 612.4802
353.4209, 646.0376
353.9030, 667.9338
354.3852, 684.6482
354.8673, 694.7388
355.3494, 704.0818
355.8315, 720.7927
356.3136, 747.3411
356.7957, 773.3132
357.2779, 788.6946
357.7600, 798.2656
358.2421, 810.2690
358.7242, 831.9521
359.2063, 854.6882
359.6884, 873.4980
360.1706, 888.0503
360.6527, 898.9038
361.1348, 901.2542
361.6169, 901.8679
362.0990, 908.0010
362.5811, 929.0310
363.0633, 948.8318
363.5454, 963.2700
364.0275, 972.0759
364.5096, 974.1619
364.9917, 964.5723
365.4738, 951.0332
365.9560, 938.5117
366.4381, 926.6526
366.9202, 917.4194
367.4023, 913.5347
367.8844, 913.1270
368.3665, 908.8398
368.8487, 894.5603
369.3308, 881.2251
369.8129, 874.0742
370.2950, 880.7410
370.7771, 878.2004
371.2592, 864.2954
371.7414, 841.9717
372.2235, 814.6306
372.7056, 773.7871
373.1877, 741.7000
373.6698, 726.2168
374.1519, 728.6848
374.6341, 736.8843
375.1162, 755.5867
375.5983, 773.1121
376.0804, 774.0042
376.5625, 754.1807
377.0446, 734.8674
377.5267, 720.1406
378.0089, 710.0149
378.4910, 709.1250
378.9731, 720.9021
379.4552, 726.8445
379.9373, 704.9387
380.4194, 656.8689
380.9016, 621.1479
381.3837, 605.3953
381.8658, 602.7124
382.3479, 600.7239
382.8300, 599.4399
383.3121, 598.0500
383.7943, 593.8406
384.2764, 589.1953
384.7585, 592.9878
385.2406, 608.2913
385.7227, 621.5747
386.2048, 613.1992
386.6870, 589.4629
387.1691, 568.0898
387.6512, 552.2610
388.1333, 543.2998
388.6154, 547.5457
389.0975, 566.2805
389.5797, 585.1462
390.0618, 595.8154
390.5439, 599.9121
391.0260, 597.8569
391.5081, 580.4497
391.9902, 562.5767
392.4724, 554.4189
392.9545, 557.1760
393.4366, 564.0410
393.9187, 578.9817
394.4008, 589.8994
394.8829, 588.8240
395.3651, 565.0312
395.8472, 546.7122
396.3293, 541.6475
396.8114, 545.4348
397.2935, 550.6946
397.7756, 565.6721
398.2578, 575.3838
398.7399, 572.0693
399.2220, 549.2058
399.7041, 530.7688
400.1862, 519.8472
400.6683, 512.4558
401.1505, 503.9944
401.6326, 489.7227
402.1147, 483.0579
402.5968, 487.8381
403.0789, 502.6067
403.5610, 511.7163
404.0432, 515.7529
404.5253, 513.7087
405.0074, 501.4697
405.4895, 474.2156
405.9716, 460.1624
406.4537, 466.9851
406.9359, 484.6289
407.4180, 484.6660
407.9001, 464.2078
408.3822, 447.7722
408.8643, 450.2219
409.3464, 469.5327
409.8285, 489.8452
410.3106, 510.8875
410.7928, 529.3232
411.2749, 541.8157
411.7570, 548.2717
412.2391, 547.7993
412.7212, 532.7451
413.2033, 513.9744
413.6855, 511.1746
414.1676, 523.7869
414.6497, 542.9089
415.1318, 565.4956
415.6139, 589.0996
416.0960, 609.9285
416.5782, 627.7781
417.0603, 641.6003
417.5424, 646.3228
418.0245, 645.5068
418.5066, 649.5603
418.9887, 668.6594
419.4709, 690.6541
419.9530, 711.9421
420.4351, 736.6729
420.9172, 740.8267
421.3993, 691.5315
421.8814, 624.1599
422.3636, 584.0659
422.8457, 610.5601
423.3278, 635.5269
423.8099, 643.1550
424.2920, 632.8945
424.7741, 612.1218
425.2563, 571.4292
425.7384, 527.5527
426.2205, 491.9148
426.7026, 471.6680
427.1847, 446.3523
427.6668, 411.4104
428.1490, 371.6104
428.6311, 341.0269
429.1132, 322.4570
429.5953, 306.1350
430.0774, 288.8457
430.5595, 270.7383
431.0417, 248.9475
431.5238, 222.3438
432.0059, 194.7729
432.4880, 170.9446
432.9701, 150.8760
433.4522, 132.7783
433.9344, 115.5056
434.4165, 100.0334
434.8986, 89.42041
435.3807, 83.65186
435.8628, 78.14160
436.3449, 70.31543
436.8271, 60.02637
437.3092, 44.90674
437.7913, 21.57178
438.2734, 1.930908
438.7555, 2.288818
439.2376, 16.81714
439.7197, 30.32617
440.2018, 37.71753
440.6840, 39.08911
441.1661, 31.01416
441.6482, 12.69165
442.1303, 0.7980960
442.6124, 6.013916
443.0945, 18.37134
443.5767, 21.06372
444.0588, 3.858643
444.5409, 24.44604
445.0230, 27.54834
445.5051, 17.16040
445.9872, 13.28027
446.4694, 24.12500
446.9515, 37.98413
447.4336, 50.98291
447.9157, 68.97607
448.3978, 72.66479
448.8799, 49.64233
449.3621, 18.73291
449.8442, 10.12378
450.3263, 36.98242
450.8084, 57.31250
451.2905, 58.17139
451.7726, 41.37451
452.2548, 33.27368
452.7369, 36.80859
453.2190, 40.91455
453.7011, 33.70679
454.1832, 15.20483
454.6653, 6.168213
455.1475, 11.83838
455.6296, 23.65649
456.1117, 25.56421
456.5938, 18.56152
457.0759, 11.94214
457.5580, 9.368408
458.0402, 10.89160
458.5223, 19.70581
459.0044, 36.50415
459.4865, 49.04639
459.9686, 45.47412
460.4507, 31.23242
460.9329, 14.45801
461.4150, 3.901123
461.8971, 21.61450
462.3792, 40.37012
462.8613, 58.07153
463.3434, 67.73682
463.8256, 56.49756
464.3077, 43.30713
464.7898, 41.45068
465.2719, 59.67480
465.7540, 68.55127
466.2361, 49.55322
466.7183, 22.25781
467.2004, 11.79224
467.6825, 35.17065
468.1646, 57.85474
468.6467, 76.47461
469.1288, 90.74316
469.6110, 95.92920
470.0930, 86.36914
470.5752, 76.18921
471.0573, 76.09277
471.5394, 90.81152
472.0215, 93.24634
472.5036, 77.41821
472.9857, 54.99658
473.4679, 48.60254
473.9500, 58.96484
474.4321, 68.40894
474.9142, 68.77881
475.3963, 63.03394
475.8784, 60.34009
476.3606, 60.75879
476.8427, 63.80762
477.3248, 71.24683
477.8069, 80.82104
478.2890, 88.02441
478.7711, 92.05713
479.2533, 93.21265
479.7354, 88.73706
480.2175, 81.36719
480.6996, 77.81372
481.1817, 83.35913
481.6638, 92.30054
482.1460, 102.9346
482.6281, 115.4072
483.1102, 122.4895
483.5923, 113.1021
484.0744, 101.4099
484.5565, 99.53760
485.0387, 124.1167
485.5208, 141.5615
486.0029, 146.6238
486.4850, 141.5571
486.9671, 132.2861
487.4492, 114.4590
487.9314, 98.54053
488.4135, 88.54297
488.8956, 85.25928
489.3777, 84.46777
489.8598, 87.90015
490.3419, 90.99951
490.8241, 83.97607
491.3062, 64.81396
491.7883, 64.82593
492.2704, 97.80103
492.7525, 146.8547
493.2346, 172.2571
493.7168, 174.5554
494.1989, 169.7517
494.6810, 162.0024
495.1631, 155.1995
495.6452, 158.6575
496.1273, 173.8875
496.6095, 191.1067
497.0916, 201.9526
497.5737, 208.7441
498.0558, 214.9990
498.5379, 221.2976
499.0201, 228.0466
499.5022, 234.7747
499.9843, 241.9395
500.4664, 251.3247
500.9485, 266.0095
501.4306, 281.0149
501.9127, 294.4905
502.3948, 307.4207
502.8770, 312.4153
503.3591, 296.1035
503.8412, 278.6384
504.3233, 282.5034
504.8054, 325.6038
505.2875, 357.5481
505.7697, 366.9761
506.2518, 359.6743
506.7339, 361.7947
507.2160, 376.4841
507.6981, 390.8904
508.1802, 393.3965
508.6624, 385.1350
509.1445, 386.6396
509.6266, 400.8284
510.1087, 420.5686
510.5908, 440.6636
511.0729, 459.6094
511.5551, 472.0466
512.0372, 473.9585
512.5193, 471.4421
513.0014, 469.7014
513.4835, 468.9609
513.9656, 472.5410
514.4478, 488.0842
514.9299, 505.7544
515.4120, 515.1404
515.8941, 512.0498
516.3762, 513.1475
516.8583, 532.7466
517.3405, 556.7295
517.8226, 570.3835
518.3047, 555.7322
518.7868, 548.6235
519.2689, 560.6758
519.7510, 586.4758
520.2332, 603.8328
520.7153, 610.9141
521.1974, 611.4165
521.6795, 603.8357
522.1616, 584.7063
522.6437, 580.0073
523.1259, 592.8770
523.6080, 613.9346
524.0901, 635.2964
524.5722, 657.0889
525.0543, 671.0068
525.5364, 674.0813
526.0186, 671.0930
526.5007, 670.3340
526.9828, 671.8870
527.4649, 676.3430
527.9470, 682.8879
528.4291, 693.0229
528.9113, 712.2595
529.3934, 741.2786
529.8755, 765.6611
530.3576, 770.3660
530.8397, 767.4243
531.3218, 770.4749
531.8040, 793.4968
532.2861, 810.1355
532.7682, 804.7649
533.2503, 786.2900
533.7324, 777.5139
534.2145, 780.4258
534.6967, 795.1345
535.1788, 826.5981
535.6609, 877.9548
536.1430, 913.9739
536.6251, 927.9365
537.1072, 935.1694
537.5894, 949.1477
538.0715, 972.3291
538.5536, 985.1660
539.0357, 982.1431
539.5178, 973.9270
539.9999, 981.2986
540.4821, 1002.171
540.9642, 1018.262
541.4463, 1017.265
541.9284, 1008.667
542.4105, 1009.674
542.8926, 1019.654
543.3748, 1033.730
543.8569, 1057.564
544.3390, 1079.665
544.8211, 1083.730
545.3032, 1059.543
545.7853, 1034.887
546.2675, 1023.404
546.7495, 1020.516
547.2316, 1019.104
547.7137, 1017.942
548.1959, 1017.004
548.6780, 1018.942
549.1601, 1023.172
549.6422, 1021.058
550.1243, 1009.696
550.6064, 994.8630
551.0886, 979.3706
551.5707, 963.2153
552.0528, 946.2080
552.5349, 925.8250
553.0170, 909.8608
553.4991, 915.1348
553.9813, 940.1367
554.4634, 945.0090
554.9455, 911.8845
555.4276, 864.3743
555.9097, 846.4014
556.3918, 853.5723
556.8740, 863.0767
557.3561, 863.2639
557.8382, 858.1204
558.3203, 852.7722
558.8024, 848.2317
559.2845, 837.0654
559.7667, 805.4426
560.2488, 769.9768
560.7309, 745.0818
561.2130, 740.1548
561.6951, 736.2419
562.1772, 732.5867
562.6594, 727.1514
563.1415, 715.8503
563.6236, 690.2485
564.1057, 671.1189
564.5878, 664.2192
565.0699, 668.1843
565.5521, 669.4177
566.0342, 668.4895
566.5163, 663.1331
566.9984, 648.1785
567.4805, 624.9412
567.9626, 611.3088
568.4448, 609.0103
568.9269, 612.3516
569.4090, 618.3660
569.8911, 624.8516
570.3732, 625.4902
570.8553, 614.0356
571.3375, 601.3835
571.8196, 599.5298
572.3017, 605.1650
572.7838, 608.9136
573.2659, 602.4177
573.7480, 596.3186
574.2302, 599.0540
574.7123, 612.8923
575.1944, 617.8901
575.6765, 602.3491
576.1586, 582.6775
576.6407, 569.5278
577.1229, 564.9600
577.6050, 563.2273
578.0871, 566.4316
578.5692, 570.4873
579.0513, 567.1433
579.5334, 555.2168
580.0156, 544.5615
580.4977, 538.5818
580.9798, 535.7766
581.4619, 532.7268
581.9440, 529.3303
582.4261, 523.8245
582.9083, 517.2480
583.3904, 506.9587
583.8725, 487.1709
584.3546, 456.6277
584.8367, 425.0918
585.3188, 393.0508
585.8010, 365.7288
586.2831, 349.2268
586.7652, 361.8899
587.2473, 364.1226
587.7294, 336.4438
588.2115, 291.5327
588.6937, 260.3931
589.1758, 254.2671
589.6579, 248.5645
590.1400, 237.7507
590.6221, 222.0276
591.1042, 204.5769
591.5864, 185.5186
592.0685, 164.9363
592.5506, 140.4785
593.0327, 113.0046
593.5148, 94.96509
593.9969, 88.31592
594.4791, 84.73511
594.9612, 76.34229
595.4433, 63.62793
595.9254, 46.82349
596.4075, 20.67480
596.8896, 1.768066
597.3718, 5.186035
597.8539, 3.969971
598.3360, 9.940186
598.8181, 1.887939
599.3002, 10.87354
599.7823, 2.428467
600.2645, 25.13379
600.7466, 36.75244
601.2287, 16.33276
601.7108, 7.751953
602.1929, 20.02393
602.6750, 15.36523
603.1572, 14.65527
603.6393, 19.91626
604.1214, 25.70850
604.6035, 23.01123
605.0856, 12.00073
605.5677, 6.488281
606.0499, 11.94458
606.5320, 21.35107
607.0141, 21.29834
607.4962, 14.14185
607.9783, 9.137939
608.4604, 13.17798
608.9425, 20.45972
609.4246, 26.49121
609.9067, 31.10596
610.3889, 34.13647
610.8710, 37.87134
611.3531, 38.37720
611.8352, 31.78955
612.3173, 10.11621
612.7994, 1.950928
613.2816, 5.1757999E-02
613.7637, 9.252197
614.2458, 21.43481
614.7279, 42.88892
615.2100, 45.07837
615.6921, 16.00195
616.1743, 27.70166
616.6564, 42.18140
617.1385, 27.86353
617.6206, 10.79443
618.1027, 1.898193
618.5848, 1.119873
619.0670, 1.252686
619.5491, 1.034180
620.0312, 1.288574
620.5133, 8.382568
620.9954, 18.73560
621.4775, 20.36084
621.9597, 10.16333
622.4418, 1.083984
622.9239, 11.92090
623.4060, 20.88696
623.8881, 26.57031
624.3702, 25.32617
624.8524, 25.79053
625.3345, 30.50659
625.8166, 36.28979
626.2987, 34.65405
626.7808, 23.01514
627.2629, 15.09521
627.7451, 15.92847
628.2272, 23.66626
628.7093, 33.77954
629.1914, 46.09717
629.6735, 55.16504
630.1556, 57.61816
630.6378, 54.22778
631.1199, 42.26929
631.6020, 20.95532
632.0841, 6.270752
632.5662, 17.54346
633.0483, 35.69678
633.5305, 41.64966
634.0126, 17.94067
634.4947, 3.732178
634.9768, 9.234863
635.4589, 27.51562
635.9410, 49.06641
636.4232, 80.73926
636.9053, 102.3076
637.3874, 108.7031
637.8695, 102.7974
638.3516, 91.08154
638.8337, 72.16064
639.3159, 61.43799
639.7980, 71.45947
640.2801, 95.13843
640.7622, 110.3132
641.2443, 117.6548
641.7264, 128.7288
642.2086, 166.2659
642.6907, 205.1050
643.1728, 212.0596
643.6549, 173.4631
644.1370, 141.8774
644.6191, 143.4202
645.1013, 160.6492
645.5834, 175.3274
646.0655, 183.5454
646.5476, 191.1226
647.0297, 198.4968
647.5118, 205.1816
647.9940, 208.6526
648.4761, 206.6760
648.9582, 210.5818
649.4403, 225.9880
649.9224, 248.6118
650.4045, 265.4148
650.8867, 276.7656
651.3688, 286.9453
651.8509, 296.1001
652.3330, 306.9678
652.8151, 327.1792
653.2972, 356.5598
653.7794, 378.3679
654.2615, 371.5212
654.7436, 359.0928
655.2257, 360.6738
655.7078, 384.3953
656.1899, 413.4973
656.6721, 450.6033
657.1542, 488.4377
657.6363, 520.2908
658.1184, 545.4709
658.6005, 565.7505
659.0826, 578.0586
659.5648, 587.8303
660.0469, 610.0171
660.5290, 645.3228
661.0111, 683.5095
661.4932, 720.2500
661.9753, 756.5225
662.4575, 792.6074
662.9396, 829.9490
663.4217, 872.5947
663.9038, 921.3538
664.3859, 976.6519
664.8680, 1040.267
665.3502, 1113.364
665.8323, 1189.048
666.3144, 1260.709
666.7965, 1337.146
667.2786, 1424.324
667.7607, 1526.922
668.2429, 1627.589
668.7250, 1722.625
669.2071, 1821.392
669.6892, 1936.863
670.1713, 2070.116
670.6534, 2203.188
671.1355, 2327.067
671.6176, 2459.059
672.0997, 2631.698
672.5818, 2832.335
673.0640, 3031.923
673.5461, 3205.497
674.0282, 3386.334
674.5103, 3603.666
674.9924, 3849.735
675.4745, 4096.592
675.9567, 4316.489
676.4388, 4552.045
676.9209, 4821.784
677.4030, 5124.533
677.8851, 5439.687
678.3672, 5771.936
678.8494, 6100.729
679.3315, 6412.175
679.8136, 6704.265
680.2957, 7003.612
680.7778, 7305.782
681.2599, 7608.570
681.7421, 7934.903
682.2242, 8252.731
682.7063, 8486.539
683.1884, 8619.574
683.6705, 8676.717
684.1526, 8673.949
684.6348, 8607.927
685.1169, 8473.446
685.5990, 8268.539
686.0811, 7997.401
686.5632, 7634.581
687.0453, 7209.721
687.5275, 6771.752
688.0096, 6317.589
688.4917, 5861.336
688.9738, 5389.612
689.4559, 4916.622
689.9380, 4494.448
690.4202, 4124.342
690.9023, 3781.945
691.3844, 3450.370
691.8665, 3142.473
692.3486, 2878.942
692.8307, 2656.902
693.3129, 2455.208
693.7950, 2265.215
694.2771, 2086.545
694.7592, 1918.095
695.2413, 1755.219
695.7234, 1612.535
696.2056, 1500.240
696.6877, 1404.456
697.1698, 1316.476
697.6519, 1237.449
698.1340, 1163.147
698.6161, 1094.070
699.0983, 1028.453
699.5804, 961.6855
700.0625, 895.4949
700.5446, 837.6724
701.0267, 791.7542
701.5089, 752.5774
701.9910, 714.4944
702.4731, 678.4028
702.9552, 646.3706
703.4373, 629.4473
703.9194, 606.6919
704.4016, 559.9294
704.8837, 495.6780
705.3658, 451.2288
705.8479, 443.8154
706.3300, 436.7261
706.8121, 416.9751
707.2943, 386.8997
707.7764, 362.7397
708.2585, 345.3521
708.7406, 336.4717
709.2227, 347.9414
709.7048, 368.4895
710.1870, 358.8506
710.6691, 316.4434
711.1512, 274.0598
711.6333, 256.4287
712.1154, 253.0276
712.5975, 252.1682
713.0797, 252.4607
713.5618, 251.9761
714.0439, 251.2678
714.5260, 249.9163
715.0081, 247.2039
715.4902, 242.5425
715.9724, 237.4666
716.4545, 231.0137
716.9366, 225.5359
717.4187, 227.2700
717.9008, 235.8965
718.3829, 238.5845
718.8651, 229.3821
719.3472, 215.6318
719.8293, 206.3608
720.3114, 201.8428
720.7935, 201.6660
721.2756, 209.4456
721.7578, 217.9934
722.2399, 228.0662
722.7220, 237.2073
723.2041, 237.2283
723.6862, 218.1201
724.1683, 200.4802
724.6505, 190.3206
725.1326, 187.4641
725.6147, 187.3069
726.0968, 190.0337
726.5789, 193.6492
727.0610, 198.9434
727.5432, 204.3101
728.0253, 201.7986
728.5074, 191.7747
728.9895, 186.0269
729.4716, 201.5464
729.9537, 222.0220
730.4359, 226.0791
730.9180, 203.7947
731.4001, 193.6824
731.8822, 224.5195
732.3643, 262.3540
732.8464, 280.1252
733.3285, 268.0562
733.8106, 258.9312
734.2927, 252.8301
734.7748, 249.9854
735.2570, 252.9854
735.7391, 260.8320
736.2212, 264.0173
736.7033, 259.9031
737.1854, 253.0466
737.6675, 243.3977
738.1497, 235.7639
738.6318, 238.9998
739.1139, 273.7141
739.5960, 299.4504
740.0781, 291.7375
740.5602, 264.5906
741.0424, 251.6208
741.5245, 269.0146
742.0066, 276.6814
742.4887, 262.5535
742.9708, 234.9219
743.4529, 220.9380
743.9351, 221.0056
744.4172, 222.6672
744.8993, 220.5437
745.3814, 216.3333
745.8635, 214.4148
746.3456, 213.2488
746.8278, 207.4602
747.3099, 191.8831
747.7920, 172.7527
748.2741, 150.5769
748.7562, 125.6318
749.2383, 111.5171
749.7205, 87.05933
750.2026, 112.0510
750.6847, 124.5032
751.1668, 125.0420
751.6489, 77.94019
752.1310, 92.28101
752.6132, 81.94019
753.0953, 70.58911
753.5774, 93.61133
754.0595, 53.49072
754.5416, 76.03735
755.0237, 73.52832
755.5059, 85.02563
755.9880, 79.30908
756.4701, 80.77051
756.9522, 98.34888
757.4343, 104.4048
757.9164, 83.27808
758.3986, 55.77612
758.8807, 38.06812
759.3628, 31.70776
759.8449, 32.00464
760.3270, 41.68555
760.8091, 50.52319
761.2913, 36.87012
761.7734, 9.735107
762.2555, 6.648193
762.7376, 47.80396
763.2197, 83.68018
763.7018, 54.92822
764.1840, 2.623291
764.6661, 36.81787
765.1482, 4.850098
765.6303, 20.50269
766.1124, 17.17725
766.5945, 1.791016
767.0767, 5.919189
767.5588, 41.37500
768.0409, 53.86084
768.5230, 23.33301
769.0051, 26.26196
769.4872, 45.61328
769.9694, 38.87134
770.4515, 25.34717
770.9336, 8.581543
771.4157, 6.386719
771.8978, 14.82910
772.3799, 17.72266
772.8621, 17.80566
773.3442, 14.60791
773.8263, 10.34424
774.3084, 5.456543
774.7905, 0.1347660
775.2726, 6.010010
775.7548, 14.98706
776.2369, 17.56470
776.7190, 7.331543
777.2011, 11.20679
777.6832, 25.47485
778.1653, 35.20508
778.6475, 34.36230
779.1296, 4.905762
779.6117, 28.07837
780.0938, 39.16431
780.5759, 28.54468
781.0580, 16.50049
781.5402, 6.688965
782.0223, 6.7626998E-02
782.5044, 2.019287
782.9865, 0.5622560
783.4686, 1.6113000E-02
783.9507, 4.957031
784.4329, 9.205322
784.9150, 8.839111
785.3971, 4.738037
785.8792, 1.227539
786.3613, 8.0077998E-02
786.8434, 1.935791
787.3256, 16.92603
787.8077, 28.67358
788.2898, 16.47119
788.7719, 27.23389
789.2540, 61.37085
789.7361, 71.00610
790.2183, 68.10107
790.7004, 55.94458
791.1825, 30.05078
791.6646, 22.93921
792.1467, 39.05981
792.6288, 58.30273
793.1110, 60.93115
793.5930, 53.49683
794.0751, 51.20898
794.5573, 55.01562
795.0394, 58.75024
795.5215, 59.37549
796.0036, 57.39941
796.4857, 53.51025
796.9678, 44.85767
797.4500, 42.26709
797.9321, 46.87231
798.4142, 53.96753
798.8963, 61.80225
799.3784, 72.79346
799.8605, 72.75342
800.3427, 59.93188
800.8248, 45.61426
801.3069, 44.61841
801.7890, 50.95068
802.2711, 50.96631
802.7532, 39.39648
803.2354, 31.18604
803.7175, 39.38843
804.1996, 54.15674
804.6817, 64.11133
805.1638, 64.55396
805.6459, 65.47363
806.1281, 68.54736
806.6102, 71.24341
807.0923, 68.50122
807.5744, 59.91797
808.0565, 54.47827
808.5386, 54.42407
809.0208, 57.36011
809.5029, 62.87915
809.9850, 69.33179
810.4671, 70.86987
810.9492, 62.76685
811.4313, 56.04199
811.9135, 56.29761
812.3956, 59.92944
812.8777, 62.49658
813.3598, 65.67871
813.8419, 62.47241
814.3240, 47.64331
814.8062, 33.17114
815.2883, 41.75439
815.7704, 69.47314
816.2525, 88.34741
816.7346, 89.75220
817.2167, 86.78271
817.6989, 96.71704
818.1810, 110.1787
818.6631, 112.4934
819.1452, 85.58789
819.6273, 65.12134
820.1094, 62.61450
820.5916, 68.75000
821.0737, 72.45923
821.5558, 73.09351
822.0379, 73.94946
822.5200, 74.41943
823.0021, 76.13403
823.4843, 74.56250
823.9664, 71.43115
824.4485, 73.12817
824.9306, 85.62231
825.4127, 95.56885
825.8948, 87.44263
826.3770, 72.71924
826.8591, 67.25586
827.3412, 87.70703
827.8233, 100.7234
828.3054, 102.0715
828.7875, 97.16138
829.2697, 91.90308
829.7518, 85.86548
830.2339, 89.04102
830.7160, 107.5942
831.1981, 125.2815
831.6802, 118.2283
832.1624, 95.70728
832.6445, 74.59326
833.1266, 56.44409
833.6087, 45.94702
834.0908, 55.05273
834.5729, 70.09009
835.0551, 68.04639
835.5372, 36.94385
836.0193, 19.58398
836.5014, 24.67627
836.9835, 38.58228
837.4656, 36.64185
837.9478, 23.03271
838.4299, 11.92090
838.9120, 4.500977
839.3941, 5.837891
839.8762, 31.91479
840.3583, 64.98486
840.8405, 80.75171
841.3226, 55.43042
841.8047, 36.51611
842.2868, 32.34448
842.7689, 31.99805
843.2510, 15.91504
843.7332, 18.80640
844.2153, 28.26392
844.6974, 1.064453
845.1795, 35.10693
845.6616, 24.46094
846.1437, 9.506836
846.6259, 29.76929
847.1080, 24.94165
847.5901, 13.31421
848.0722, 3.257568
848.5543, 19.72900
849.0364, 30.85254
849.5186, 39.26831
850.0007, 33.77026
850.4828, 7.841064
850.9649, 19.96680
851.4470, 22.30640
851.9291, 5.111816
852.4113, 8.179199
852.8934, 14.49292
853.3755, 11.87012
853.8576, 14.14185
854.3397, 43.57764
854.8218, 53.73218
855.3040, 26.90039
855.7860, 6.070557
856.2681, 7.646484
856.7502, 12.35596
857.2324, 0.5183110
857.7145, 28.89502
858.1966, 36.68774
858.6787, 17.30957
859.1608, 7.157227
859.6429, 16.68359
860.1251, 16.09302
860.6072, 10.82812
861.0893, 5.3955000E-02
861.5714, 6.168457
862.0535, 2.926270
862.5356, 13.04541
863.0178, 12.96777
863.4999, 1.030762
863.9820, 10.28345
864.4641, 14.81763
864.9462, 14.16846
865.4283, 2.080811
865.9105, 14.69482
866.3926, 15.51147
866.8747, 1.342773
867.3568, 15.08887
867.8389, 11.42554
868.3210, 0.2580570
868.8032, 15.86914
869.2853, 37.16675
869.7674, 47.89893
870.2495, 43.18823
870.7316, 36.96558
871.2137, 37.53662
871.6959, 44.08032
872.1780, 51.67993
872.6601, 60.02710
873.1422, 64.24536
873.6243, 54.36304
874.1064, 42.91284
874.5886, 42.32300
875.0707, 52.85864
875.5528, 65.05518
876.0349, 79.47339
876.5170, 92.13818
876.9991, 102.1575
877.4813, 109.1514
877.9634, 108.5139
878.4455, 99.75317
878.9276, 95.11279
879.4097, 105.7375
879.8918, 122.0278
880.3740, 129.3650
880.8561, 130.1511
881.3382, 133.5547
881.8203, 149.8748
882.3024, 162.6560
882.7845, 162.0107
883.2667, 153.0559
883.7488, 153.8906
884.2309, 167.1265
884.7130, 176.7949
885.1951, 175.8613
885.6772, 171.1921
886.1594, 177.1479
886.6415, 190.5461
887.1236, 202.5361
887.6057, 204.2126
888.0878, 209.1257
888.5699, 227.3521
889.0521, 252.1421
889.5342, 270.1494
890.0163, 280.3923
890.4984, 284.8806
890.9805, 281.7864
891.4626, 276.8740
891.9448, 279.2444
892.4269, 288.1243
892.9090, 301.3145
893.3911, 319.0200
893.8732, 337.4734
894.3553, 357.8293
894.8375, 376.6304
895.3196, 388.8088
895.8017, 387.3850
896.2838, 388.9265
896.7659, 394.9336
897.2480, 402.0857
897.7302, 409.3943
898.2123, 415.4031
898.6944, 411.2305
899.1765, 395.0444
899.6586, 380.1597
900.1407, 376.4233
900.6229, 381.3826
901.1050, 393.5544
901.5871, 413.2002
902.0692, 432.2791
902.5513, 463.8120
903.0334, 481.9915
903.5156, 461.8501
903.9977, 403.2510
904.4798, 382.1243
904.9619, 400.5364
905.4440, 422.4473
905.9261, 410.6641
906.4083, 395.3799
906.8904, 421.0342
907.3725, 483.3584
907.8546, 517.5913
908.3367, 476.9099
908.8188, 432.8169
909.3010, 411.4539
909.7831, 409.6216
910.2652, 402.3013
910.7473, 388.6094
911.2294, 380.7278
911.7115, 386.7705
912.1937, 396.3677
912.6758, 397.3865
913.1579, 394.5110
913.6400, 393.7180
914.1221, 404.1714
914.6042, 406.3303
915.0864, 389.9636
915.5685, 363.2305
916.0506, 343.7349
916.5327, 332.9153
917.0148, 337.4807
917.4969, 363.2913
917.9790, 387.6377
918.4611, 367.0022
918.9432, 327.1653
919.4254, 316.4175
919.9075, 368.0237
920.3896, 410.1223
920.8717, 412.3967
921.3538, 399.0300
921.8359, 390.4363
922.3181, 387.6062
922.8002, 385.3669
923.2823, 383.7251
923.7644, 384.9314
924.2465, 396.5894
924.7286, 410.2327
925.2108, 409.5220
925.6929, 393.1677
926.1750, 379.1541
926.6571, 381.4856
927.1392, 380.8401
927.6213, 362.1902
928.1035, 325.8118
928.5856, 310.6826
929.0677, 319.1001
929.5498, 334.8110
930.0319, 357.9658
930.5140, 377.7205
930.9962, 366.0913
931.4783, 331.3933
931.9604, 309.1594
932.4425, 332.1921
932.9246, 351.6667
933.4067, 344.1711
933.8889, 319.9714
934.3710, 305.1206
934.8531, 300.7517
935.3352, 300.1240
935.8173, 303.3000
936.2994, 305.5662
936.7816, 297.1890
937.2637, 282.7068
937.7458, 271.5869
938.2279, 268.6804
938.7100, 266.3276
939.1921, 260.4006
939.6743, 254.8640
940.1564, 254.2378
940.6385, 259.7913
941.1206, 263.9675
941.6027, 266.5662
942.0848, 266.9316
942.5670, 264.0190
943.0491, 258.6108
943.5312, 250.3584
944.0133, 238.8357
944.4954, 231.7537
944.9775, 233.6394
945.4597, 239.8599
945.9418, 250.1028
946.4239, 264.2266
946.9060, 265.1562
947.3881, 251.5542
947.8702, 239.7366
948.3524, 239.9321
948.8345, 247.3562
949.3166, 260.6648
949.7987, 276.1296
950.2808, 280.1250
950.7629, 249.6145
951.2451, 227.9414
951.7272, 229.8889
952.2093, 246.5969
952.6914, 262.0930
953.1735, 276.9644
953.6556, 276.4360
954.1378, 251.0630
954.6199, 225.1692
955.1020, 231.5886
955.5841, 255.2668
956.0662, 274.1816
956.5483, 283.4731
957.0305, 286.0886
957.5126, 281.1399
957.9947, 271.4194
958.4768, 255.8398
958.9589, 234.0374
959.4410, 227.1782
959.9232, 236.3899
960.4053, 250.5725
960.8874, 269.9924
961.3695, 284.9802
961.8516, 275.6921
962.3337, 241.8325
962.8159, 235.3186
963.2980, 287.5000
963.7801, 337.4338
964.2622, 364.9128
964.7443, 376.0168
965.2264, 395.7219
965.7086, 421.8855
966.1907, 436.9988
966.6728, 426.5576
967.1549, 412.9270
967.6370, 409.3928
968.1191, 415.3047
968.6013, 430.6208
969.0834, 462.5811
969.5655, 490.0078
970.0476, 511.4744
970.5297, 531.1248
971.0118, 556.3586
971.4940, 585.0676
971.9761, 612.1147
972.4582, 638.2803
972.9403, 657.5222
973.4224, 652.0864
973.9045, 643.8267
974.3867, 656.5930
974.8688, 696.1794
975.3509, 725.8301
975.8330, 744.9885
976.3151, 755.3882
976.7972, 750.9890
977.2794, 740.7126
977.7615, 753.6399
978.2436, 783.4287
978.7257, 806.5400
979.2078, 813.3750
979.6899, 807.9971
980.1720, 780.4558
980.6541, 744.2393
981.1362, 729.7234
981.6183, 740.5957
982.1005, 755.4243
982.5826, 772.2034
983.0647, 785.5149
983.5468, 785.8315
984.0289, 777.9695
984.5110, 771.1370
984.9932, 769.8191
985.4753, 761.2686
985.9574, 733.2964
986.4395, 704.1135
986.9216, 686.1794
987.4037, 680.2224
987.8859, 666.9673
988.3680, 646.3958
988.8501, 622.6992
989.3322, 595.0413
989.8143, 568.5166
990.2964, 550.0183
990.7786, 538.1699
991.2607, 524.2319
991.7428, 504.8291
992.2249, 485.6606
992.7070, 468.1226
993.1891, 451.1946
993.6713, 431.0000
994.1534, 408.8975
994.6355, 393.7612
995.1176, 390.7852
995.5997, 387.4722
996.0818, 371.1877
996.5640, 351.2837
997.0461, 339.2458
997.5282, 342.3845
998.0103, 333.1531
998.4924, 307.0046
998.9745, 280.9648
999.4567, 268.6299
999.9388, 266.4985
1000.421, 269.8833
1000.903, 277.1743
1001.385, 278.2007
1001.867, 268.5034
1002.349, 250.1333
1002.831, 217.8176
1003.314, 178.2820
1003.796, 150.6135
1004.278, 134.6555
1004.760, 131.9009
1005.242, 146.8005
1005.724, 165.4316
1006.206, 174.5422
1006.688, 173.8083
1007.171, 161.2078
1007.653, 123.1702
1008.135, 102.1465
1008.617, 110.4744
1009.099, 126.6016
1009.581, 134.0620
1010.063, 133.6274
1010.545, 138.3303
1011.027, 147.7598
1011.510, 146.9924
1011.992, 113.4297
1012.474, 76.08911
1012.956, 56.72314
1013.438, 53.70264
1013.920, 50.88818
1014.402, 48.94385
1014.884, 43.22095
1015.367, 31.39722
1015.849, 17.15332
1016.331, 4.864258
1016.813, 4.368164
1017.295, 5.885986
1017.777, 8.356934
1018.259, 12.68896
1018.741, 15.45825
1019.223, 48.32739
1019.706, 64.79810
1020.188, 63.23828
1020.670, 54.64355
1021.152, 38.31079
1021.634, 24.06396
1022.116, 21.69141
1022.598, 23.74341
1023.080, 19.88135
1023.563, 12.19507
1024.045, 12.95508
1024.527, 35.97339
1025.009, 51.42358
1025.491, 54.21948
1025.973, 45.71313
1026.455, 19.04688
1026.937, 18.52466
1027.419, 33.11011
1027.901, 10.84644
1028.384, 13.94653
1028.866, 17.19604
1029.348, 13.88281
1029.830, 20.59644
1030.312, 42.39429
1030.794, 36.57642
1031.276, 2.656494
1031.758, 39.42188
1032.241, 44.96729
1032.723, 35.39136
1033.205, 38.70532
1033.687, 49.85449
1034.169, 50.45239
1034.651, 12.23926
1035.133, 8.200195
1035.615, 7.137451
1036.098, 38.61597
1036.580, 52.19336
1037.062, 50.08887
1037.544, 54.22021
1038.026, 70.04712
1038.508, 79.86157
1038.990, 55.40405
1039.472, 28.29321
1039.954, 31.80566
1040.437, 72.97095
1040.919, 93.50293
1041.401, 88.99609
1041.883, 79.96289
1042.365, 73.60083
1042.847, 71.80029
1043.329, 82.73413
1043.811, 101.3840
1044.293, 114.0291
1044.776, 111.2305
1045.258, 107.0344
1045.740, 103.2798
1046.222, 100.7266
1046.704, 99.49854
1047.186, 99.71045
1047.668, 105.7043
1048.150, 117.9209
1048.633, 132.1470
1049.115, 143.8525
1049.597, 156.7820
1050.079, 177.7251
1050.561, 205.9832
1051.043, 218.9929
1051.525, 210.0737
1052.007, 204.8958
1052.490, 212.9250
1052.972, 227.9358
1053.454, 240.4016
1053.936, 250.4814
1054.418, 258.9973
1054.900, 268.8472
1055.382, 271.0173
1055.864, 248.9050
1056.346, 231.5354
1056.828, 247.7434
1057.311, 297.0332
1057.793, 313.7200
1058.275, 298.0774
1058.757, 285.0725
1059.239, 304.2175
1059.721, 330.0210
1060.203, 344.4517
1060.685, 349.3848
1061.168, 353.9775
1061.650, 355.1218
1062.132, 368.8652
1062.614, 402.0649
1063.096, 437.9683
1063.578, 450.0376
1064.060, 449.2505
1064.542, 451.8987
1065.025, 458.5156
1065.507, 484.0647
1065.989, 558.4583
1066.471, 623.3125
1066.953, 648.4707
1067.435, 641.1760
1067.917, 641.8738
1068.399, 650.3967
1068.881, 665.5015
1069.364, 689.4333
1069.846, 716.5332
1070.328, 746.2927
1070.810, 775.6980
1071.292, 799.8523
1071.774, 818.5708
1072.256, 830.9204
1072.738, 834.8752
1073.220, 841.6682
1073.703, 864.4536
1074.185, 895.0667
1074.667, 923.8176
1075.149, 950.0696
1075.631, 971.8599
1076.113, 989.9526
1076.595, 1000.049
1077.077, 998.9067
1077.559, 990.6240
1078.042, 983.7532
1078.524, 977.4175
1079.006, 964.7993
1079.488, 939.3545
1079.970, 923.7502
1080.452, 949.6921
1080.934, 974.2188
1081.416, 959.2979
1081.899, 902.8152
1082.381, 876.2192
1082.863, 881.0979
1083.345, 884.9329
1083.827, 861.8010
1084.309, 835.4250
1084.791, 834.4246
1085.273, 844.2671
1085.755, 832.0679
1086.238, 780.8860
1086.720, 733.3779
1087.202, 692.4087
1087.684, 656.8845
1088.166, 626.3262
1088.648, 600.7576
1089.130, 576.7485
1089.612, 552.5215
1090.094, 535.0381
1090.577, 539.1653
1091.059, 535.9504
1091.541, 512.0725
1092.023, 476.6699
1092.505, 456.7681
1092.987, 449.1484
1093.469, 434.5332
1093.951, 402.8860
1094.434, 375.0181
1094.916, 367.9626
1095.398, 369.6472
1095.880, 370.2344
1096.362, 369.8997
1096.844, 359.4583
1097.326, 337.3601
1097.808, 320.5852
1098.291, 326.5327
1098.773, 337.1292
1099.255, 328.3750
1099.737, 307.7458
1100.219, 291.7219
1100.701, 284.5869
1101.183, 282.8435
1101.665, 291.3828
1102.147, 293.4529
1102.630, 257.3931
1103.112, 205.0278
1103.594, 189.9858
1104.076, 213.7773
1104.558, 236.7109
1105.040, 241.0586
1105.522, 241.8826
1106.004, 243.7935
1106.486, 245.7769
1106.969, 247.1951
1107.451, 247.2087
1107.933, 238.4021
1108.415, 216.4673
1108.897, 197.8652
1109.379, 196.5549
1109.861, 200.5645
1110.343, 202.4282
1110.826, 202.5583
1111.308, 195.1399
1111.790, 178.1335
1112.272, 169.7158
1112.754, 188.3147
1113.236, 207.8679
1113.718, 189.1191
1114.200, 154.4878
1114.682, 141.0454
1115.165, 172.1528
1115.647, 182.1997
1116.129, 165.1570
1116.611, 143.9053
1117.093, 141.5964
1117.575, 148.7966
1118.057, 144.5393
1118.539, 130.3376
1119.021, 121.6687
1119.504, 131.0398
1119.986, 136.9812
1120.468, 134.3560
1120.950, 128.3503
1121.432, 127.8721
1121.914, 131.6260
1122.396, 134.8252
1122.878, 136.8362
1123.361, 136.1785
1123.843, 130.6584
1124.325, 123.5894
1124.807, 116.7832
1125.289, 110.4885
1125.771, 101.5801
1126.253, 90.54419
1126.735, 90.85132
1127.218, 113.1714
1127.700, 135.3340
1128.182, 135.6064
1128.664, 126.4683
1129.146, 120.6482
1129.628, 118.4392
1130.110, 125.4692
1130.592, 142.7197
1131.074, 154.7087
1131.557, 146.3445
1132.039, 131.5476
1132.521, 125.2332
1133.003, 126.8252
1133.485, 133.3940
1133.967, 147.0154
1134.449, 159.6685
1134.931, 172.6763
1135.413, 180.7437
1135.896, 174.5969
1136.378, 162.0771
1136.860, 156.5142
1137.342, 158.0090
1137.824, 156.5000
1138.306, 148.0371
1138.788, 136.0625
1139.270, 118.2451
1139.752, 100.7720
1140.235, 94.70410
1140.717, 98.05225
1141.199, 107.3159
1141.681, 123.0120
1142.163, 132.3391
1142.645, 120.4602
1143.127, 110.2717
1143.609, 115.8101
1144.092, 131.6255
1144.574, 134.5894
1145.056, 126.2615
1145.538, 112.1541
1146.020, 91.05737
1146.502, 72.76147
1146.984, 63.83911
1147.466, 61.25098
1147.948, 62.62671
1148.431, 68.33984
1148.913, 68.86890
1149.395, 64.12646
1149.877, 69.61523
1150.359, 113.0359
1150.841, 152.0889
1151.323, 144.0515
1151.805, 111.4233
1152.287, 96.09448
1152.770, 105.4856
1153.252, 109.3442
1153.734, 105.1648
1154.216, 102.8477
1154.698, 118.1289
1155.180, 134.7329
1155.662, 132.1609
1156.144, 113.5852
1156.627, 96.99634
1157.109, 81.39185
1157.591, 77.20264
1158.073, 90.87720
1158.555, 102.2034
1159.037, 76.23413
1159.519, 36.22876
1160.001, 18.71021
1160.484, 27.83130
1160.966, 41.10791
1161.448, 63.75537
1161.930, 70.74707
1162.412, 48.29419
1162.894, 16.16748
1163.376, 15.62915
1163.858, 34.89600
1164.340, 48.60547
1164.823, 52.21045
1165.305, 45.52075
1165.787, 19.29712
1166.269, 4.150635
1166.751, 11.96753
1167.233, 9.825439
1167.715, 19.78809
1168.197, 37.43213
1168.679, 46.82593
1169.162, 40.92065
1169.644, 27.70312
1170.126, 3.521484
1170.608, 27.90527
1171.090, 20.22778
1171.572, 14.94043
1172.054, 20.45874
1172.536, 0.1391600
1173.019, 17.44287
1173.501, 17.11060
1173.983, 10.20972
1174.465, 4.236816
1174.947, 18.82202
1175.429, 25.23193
1175.911, 23.44238
1176.393, 15.60181
1176.875, 2.069092
1177.358, 9.535400
1177.840, 13.92627
1178.322, 14.64526
1178.804, 11.58301
1179.286, 6.989014
1179.768, 5.266602
1180.250, 6.440430
1180.732, 12.02344
1181.214, 23.04419
1181.697, 29.89209
1182.179, 16.78516
1182.661, 2.753662
1183.143, 8.198975
1183.625, 27.80054
1184.107, 27.22925
1184.589, 3.757813
1185.071, 4.900391
1185.554, 14.76807
1186.036, 35.44043
1186.518, 23.11670
1187.000, 2.381592
1187.482, 0.1000980
1187.964, 18.16235
1188.446, 34.19238
1188.928, 49.78687
1189.411, 50.74829
1189.893, 24.39551
1190.375, 4.602783
1190.857, 6.377686
1191.339, 6.142578
1191.821, 18.11450
1192.303, 29.69653
1192.785, 27.48804
1193.267, 7.555176
1193.750, 3.662354
1194.232, 16.06152
1194.714, 44.18726
1195.196, 52.49170
1195.678, 49.00073
1196.160, 48.38965
1196.642, 56.90967
1197.124, 59.49780
1197.606, 55.83813
1198.089, 47.65454
1198.571, 28.71558
1199.053, 11.54053
1199.535, 21.66943
1200.017, 47.13770
1200.499, 52.29541
1200.981, 10.38623
1201.463, 0.5429690
1201.945, 35.70532
1202.428, 74.05127
1202.910, 69.81128
1203.392, 47.57202
1203.874, 40.70239
1204.356, 48.19775
1204.838, 55.53296
1205.320, 62.84351
1205.802, 63.28027
1206.285, 53.88037
1206.767, 43.70068
1207.249, 44.71191
1207.731, 51.42188
1208.213, 58.56055
1208.695, 64.95068
1209.177, 60.46191
1209.659, 35.45508
1210.141, 21.66235
1210.624, 28.37891
1211.106, 44.20166
1211.588, 57.48755
1212.070, 67.06177
1212.552, 70.91357
1213.034, 68.46069
1213.516, 62.43481
1213.998, 48.62451
1214.480, 43.79956
1214.963, 56.21143
1215.445, 74.68164
1215.927, 81.79565
1216.409, 81.64258
1216.891, 80.45557
1217.373, 79.24146
1217.855, 77.56104
1218.337, 73.46655
1218.820, 74.79053
1219.302, 89.26904
1219.784, 104.9585
1220.266, 94.17017
1220.748, 71.24805
1221.230, 62.38379
1221.712, 80.90210
1222.194, 91.41138
1222.677, 89.79419
1223.159, 87.32617
1223.641, 91.65015
1224.123, 96.62231
1224.605, 90.73999
1225.087, 79.68555
1225.569, 72.57178
1226.051, 74.97949
1226.533, 75.76709
1227.016, 77.06860
1227.498, 74.13525
1227.980, 56.21899
1228.462, 36.65259
1228.944, 44.06860
1229.426, 66.98291
1229.908, 82.30469
1230.390, 77.69678
1230.872, 84.96143
1231.355, 109.7275
1231.837, 126.4348
1232.319, 101.3203
1232.801, 60.75635
1233.283, 45.46973
1233.765, 50.29980
1234.247, 55.48462
1234.729, 57.90674
1235.212, 59.36914
1235.694, 60.16968
1236.176, 60.15747
1236.658, 61.17285
1237.140, 62.66113
1237.622, 66.75732
1238.104, 73.11401
1238.586, 67.63062
1239.068, 46.26733
1239.551, 36.71289
1240.033, 41.61792
1240.515, 49.51660
1240.997, 53.63501
1241.479, 51.75122
1241.961, 38.52563
1242.443, 20.28125
1242.925, 13.72510
1243.407, 22.29810
1243.890, 30.14600
1244.372, 33.69336
1244.854, 37.62256
1245.336, 46.77026
1245.818, 54.76880
1246.300, 55.53687
1246.782, 48.61230
1247.264, 50.64014
1247.747, 62.92334
1248.229, 74.71631
1248.711, 85.04761
1249.193, 89.44995
1249.675, 77.13623
1250.157, 60.74316
1250.639, 52.14624
1251.121, 51.37329
1251.604, 62.22363
1252.086, 85.79443
1252.568, 89.77075
1253.050, 62.02417
1253.532, 32.23267
1254.014, 24.52490
1254.496, 26.96704
1254.978, 33.07544
1255.460, 40.69580
1255.943, 38.06787
1256.425, 25.88062
1256.907, 23.95923
1257.389, 40.72632
1257.871, 56.83496
1258.353, 58.91211
1258.835, 54.39355
1259.317, 48.09058
1259.799, 40.67505
1260.281, 29.36450
1260.764, 15.82031
1261.246, 13.21069
1261.728, 30.57812
1262.210, 43.48315
1262.692, 31.98120
1263.174, 19.41016
1263.656, 21.29175
1264.138, 33.09058
1264.621, 31.67285
1265.103, 21.91260
1265.585, 25.16357
1266.067, 59.26392
1266.549, 76.89526
1267.031, 46.21436
1267.513, 13.41406
1267.995, 0.4716800
1268.478, 4.456299
1268.960, 23.56714
1269.442, 51.14575
1269.924, 67.81714
1270.406, 63.92676
1270.888, 55.41699
1271.370, 38.70410
1271.852, 30.97534
1272.334, 50.45117
1272.817, 79.96436
1273.299, 77.96143
1273.781, 55.26294
1274.263, 35.40161
1274.745, 24.31689
1275.227, 18.82935
1275.709, 18.26807
1276.191, 25.02466
1276.673, 49.77246
1277.156, 74.35522
1277.638, 63.91089
1278.120, 34.49878
1278.602, 16.58350
1279.084, 21.75024
1279.566, 19.37573
1280.048, 7.984131
1280.530, 1.826660
1281.013, 1.986572
1281.495, 1.439209
1281.977, 0.4509280
1282.459, 2.104736
1282.941, 7.440430
1283.423, 33.54224
1283.905, 44.61450
1284.387, 40.43286
1284.870, 30.85278
1285.352, 13.30908
1285.834, 1.944092
1286.316, 5.176270
1286.798, 18.56323
1287.280, 35.89600
1287.762, 58.44067
1288.244, 51.31616
1288.726, 18.27612
1289.208, 0.0000000E+00
##END=



