##NAMES=Potassic-magnesio-fluoro-arfvedsonite
##RRUFFID=R060915
##IDEAL CHEMISTRY=KNa_2_(Mg_4_Fe^3+^)Si_8_O_22_F_2_
##LOCALITY=Kipawa, Quebec, Canada
##OWNER=RRUFF
##SOURCE=Royal Ontario Museum
##DESCRIPTION=Dark blue-green amphibole with pronounced cleavage, associated with white albite and red eudialyte
##STATUS=The identification of this mineral has been confirmed by X-ray diffraction and chemical analysis
##URL=rruff.info/R060915
##MEASURED CHEMISTRY=(K_0.44_Na_0.41_[box]_0.15_)_Σ=1_(Na_1.79_Ca_0.21_)_Σ=2_(Mg_3.10_Fe^3+^_0.82_Fe^2+^_0.54_Ca_0.27_Mn_0.15_Al_0.11_Ti_0.01_)_Σ=5_Si_8.00_O_22_(F_1.52_(OH)_0.48_)_Σ=2_
159.1325, 0.0000000E+00
159.6146, 9.192749
160.0968, 1.233887
160.5789, 5.206055
161.0610, 15.35303
161.5431, 15.62402
162.0252, 5.597412
162.5073, 1.731201
162.9895, 6.901245
163.4716, 33.63794
163.9537, 58.40955
164.4358, 76.98743
164.9179, 95.35132
165.4000, 120.6306
165.8822, 153.5618
166.3643, 186.0006
166.8464, 209.7166
167.3285, 224.1541
167.8106, 237.9785
168.2927, 255.8729
168.7749, 271.3964
169.2570, 275.9275
169.7391, 267.7631
170.2212, 257.0166
170.7033, 254.6650
171.1854, 260.3981
171.6676, 262.8611
172.1497, 259.4485
172.6318, 252.2953
173.1139, 243.9979
173.5960, 235.0045
174.0781, 223.9049
174.5603, 207.8927
175.0424, 187.4877
175.5245, 168.5579
176.0066, 152.8608
176.4887, 139.0347
176.9708, 124.3628
177.4530, 107.7020
177.9351, 93.80188
178.4172, 89.44336
178.8993, 93.04785
179.3814, 96.44495
179.8635, 99.88416
180.3457, 101.1479
180.8278, 94.87683
181.3099, 78.45789
181.7920, 62.28162
182.2741, 59.14758
182.7562, 66.24963
183.2384, 72.19800
183.7205, 70.43091
184.2026, 66.48975
184.6847, 70.89941
185.1668, 87.12366
185.6489, 103.6445
186.1311, 108.1514
186.6132, 103.3120
187.0953, 97.32141
187.5774, 86.19287
188.0595, 77.34314
188.5416, 86.77771
189.0238, 121.2731
189.5059, 156.6682
189.9880, 169.6104
190.4701, 165.3801
190.9522, 158.2771
191.4343, 148.3009
191.9165, 139.3885
192.3986, 138.6251
192.8807, 147.5000
193.3628, 161.5092
193.8449, 180.3881
194.3270, 202.2328
194.8092, 220.4686
195.2913, 230.3717
195.7734, 236.1556
196.2555, 244.6661
196.7376, 256.5765
197.2197, 270.4044
197.7019, 287.4248
198.1840, 305.9868
198.6661, 320.7124
199.1482, 328.6414
199.6303, 332.2644
200.1124, 335.7407
200.5946, 339.7994
201.0767, 341.6080
201.5588, 332.6027
202.0409, 318.9307
202.5230, 315.8359
203.0051, 338.2919
203.4873, 369.7274
203.9694, 384.4386
204.4515, 378.5134
204.9336, 370.2822
205.4157, 375.6860
205.8978, 388.5725
206.3800, 395.6427
206.8621, 386.9469
207.3442, 373.6517
207.8263, 372.6344
208.3084, 386.0988
208.7905, 398.1050
209.2727, 393.2437
209.7548, 379.5980
210.2369, 373.9189
210.7190, 385.3357
211.2011, 402.8644
211.6832, 413.5927
212.1654, 416.8174
212.6475, 420.2441
213.1296, 430.8915
213.6117, 444.4546
214.0938, 451.7666
214.5760, 444.6865
215.0581, 436.6342
215.5402, 442.0573
216.0223, 464.1613
216.5044, 493.5709
216.9865, 519.5210
217.4687, 543.8060
217.9508, 561.9548
218.4329, 570.0671
218.9150, 576.7479
219.3971, 594.0200
219.8792, 621.4021
220.3614, 638.0358
220.8435, 626.4077
221.3256, 599.7832
221.8077, 585.6461
222.2898, 588.5383
222.7719, 599.3506
223.2541, 615.1553
223.7362, 634.1409
224.2183, 646.5625
224.7004, 646.4092
225.1825, 639.5503
225.6646, 638.5537
226.1468, 647.0376
226.6289, 651.9578
227.1110, 641.2878
227.5931, 619.6842
228.0752, 605.1350
228.5573, 606.4076
229.0395, 616.5492
229.5216, 623.1648
230.0037, 625.6987
230.4858, 625.9556
230.9679, 622.4048
231.4500, 616.2859
231.9322, 611.9906
232.4143, 612.3064
232.8964, 612.7454
233.3785, 603.7327
233.8606, 583.1560
234.3427, 566.2930
234.8249, 560.7041
235.3070, 561.3762
235.7891, 560.4005
236.2712, 556.0861
236.7533, 548.6194
237.2354, 536.9800
237.7176, 520.4374
238.1997, 505.9142
238.6818, 493.6156
239.1639, 484.3943
239.6460, 479.6920
240.1281, 479.8468
240.6103, 483.2314
241.0924, 490.5389
241.5745, 503.4436
242.0566, 504.4258
242.5387, 478.3193
243.0208, 448.2158
243.5030, 438.1375
243.9851, 449.6409
244.4672, 462.8213
244.9493, 458.9526
245.4314, 435.6160
245.9135, 417.3043
246.3957, 402.2539
246.8778, 393.3722
247.3599, 396.8468
247.8420, 410.3990
248.3241, 422.1407
248.8062, 422.7778
249.2884, 412.3993
249.7705, 404.5358
250.2526, 403.0601
250.7347, 399.8802
251.2168, 388.2656
251.6989, 371.6064
252.1811, 359.9728
252.6632, 360.7778
253.1453, 371.1484
253.6274, 370.7295
254.1095, 351.2207
254.5916, 331.8644
255.0738, 316.0555
255.5559, 303.6794
256.0380, 294.6519
256.5201, 289.0950
257.0022, 285.9736
257.4843, 282.0251
257.9665, 275.8555
258.4486, 270.5900
258.9307, 269.9570
259.4128, 268.8933
259.8949, 260.8364
260.3770, 243.5746
260.8592, 221.7119
261.3413, 203.8357
261.8234, 193.4562
262.3055, 181.7592
262.7876, 166.9663
263.2697, 152.0780
263.7519, 139.4530
264.2340, 129.5583
264.7161, 121.2874
265.1982, 113.5227
265.6803, 106.7899
266.1624, 98.85547
266.6446, 86.93396
267.1267, 76.27612
267.6088, 70.44104
268.0909, 68.88892
268.5730, 68.39160
269.0551, 66.30127
269.5373, 62.70605
270.0194, 56.51270
270.5015, 46.41260
270.9836, 34.63452
271.4657, 21.11597
271.9478, 6.343140
272.4300, 9.282104
272.9121, 27.05188
273.3942, 45.30920
273.8763, 53.90149
274.3584, 47.98279
274.8405, 38.33337
275.3227, 23.25146
275.8048, 8.315552
276.2869, 2.488159
276.7690, 12.61584
277.2511, 29.32983
277.7332, 28.94214
278.2154, 1.431763
278.6975, 15.93994
279.1796, 2.204712
279.6617, 29.02002
280.1438, 37.30872
280.6259, 17.20020
281.1081, 8.896729
281.5902, 11.77393
282.0723, 10.85425
282.5544, 28.27429
283.0365, 30.83118
283.5186, 26.09131
284.0008, 18.92822
284.4829, 9.531250
284.9650, 2.313965
285.4471, 0.5725100
285.9292, 1.113525
286.4113, 10.39966
286.8935, 33.69067
287.3756, 55.21594
287.8577, 59.32910
288.3398, 47.91443
288.8219, 33.19287
289.3040, 17.31433
289.7862, 2.011353
290.2683, 8.016113
290.7504, 10.79407
291.2325, 16.65881
291.7146, 39.36194
292.1967, 74.05859
292.6789, 96.76904
293.1610, 94.81604
293.6431, 86.16577
294.1252, 84.32910
294.6073, 89.50256
295.0894, 99.28467
295.5716, 113.8225
296.0537, 131.5574
296.5358, 145.0062
297.0179, 151.1859
297.5000, 156.7529
297.9821, 162.4980
298.4643, 169.5332
298.9464, 181.8618
299.4285, 202.2256
299.9106, 225.1306
300.3927, 237.1702
300.8748, 229.1180
301.3570, 225.2374
301.8391, 230.8984
302.3212, 240.4199
302.8033, 248.2612
303.2854, 252.9613
303.7675, 255.8521
304.2497, 258.5466
304.7318, 260.2853
305.2139, 264.2727
305.6960, 270.4043
306.1781, 278.5422
306.6602, 290.6050
307.1424, 305.1863
307.6245, 317.9236
308.1066, 324.9147
308.5887, 326.0659
309.0708, 325.9011
309.5529, 322.5448
310.0351, 319.7571
310.5172, 318.0852
310.9993, 317.6812
311.4814, 318.5630
311.9635, 320.6820
312.4456, 324.2511
312.9278, 330.7964
313.4099, 344.5959
313.8920, 352.9639
314.3741, 348.9854
314.8562, 341.4482
315.3383, 339.1626
315.8205, 344.8136
316.3026, 352.0413
316.7847, 350.6760
317.2668, 338.8364
317.7489, 334.3989
318.2310, 346.3835
318.7132, 361.8792
319.1953, 371.9130
319.6774, 376.3834
320.1595, 381.0978
320.6416, 390.8738
321.1237, 404.1553
321.6059, 416.0143
322.0880, 427.6841
322.5701, 434.3116
323.0522, 427.0438
323.5343, 411.1903
324.0164, 401.3606
324.4986, 405.0319
324.9807, 414.6952
325.4628, 423.2579
325.9449, 430.5750
326.4270, 435.1781
326.9091, 434.8417
327.3913, 431.6229
327.8734, 432.4318
328.3555, 442.9971
328.8376, 449.6545
329.3197, 441.2236
329.8018, 424.5154
330.2840, 415.7137
330.7661, 422.1801
331.2482, 432.3751
331.7303, 425.3348
332.2124, 390.8182
332.6945, 365.8798
333.1767, 360.4620
333.6588, 361.4272
334.1409, 357.0543
334.6230, 344.7880
335.1051, 328.5807
335.5872, 313.0963
336.0694, 299.5928
336.5515, 291.8943
337.0336, 289.4635
337.5157, 288.8483
337.9979, 294.6139
338.4800, 304.2484
338.9621, 309.3168
339.4442, 302.4216
339.9263, 286.1292
340.4084, 275.7025
340.8906, 276.5354
341.3727, 277.7014
341.8548, 275.6873
342.3369, 274.3248
342.8190, 278.7087
343.3011, 289.8842
343.7833, 300.2390
344.2654, 296.2362
344.7475, 273.7810
345.2296, 262.5404
345.7117, 276.7350
346.1938, 296.8728
346.6760, 311.0123
347.1581, 319.6763
347.6402, 328.2977
348.1223, 341.1666
348.6044, 355.4962
349.0865, 363.4186
349.5687, 362.2871
350.0508, 362.7584
350.5329, 375.6122
351.0150, 394.7594
351.4971, 407.4336
351.9792, 408.8489
352.4614, 405.7615
352.9435, 398.4777
353.4256, 389.4951
353.9077, 393.0171
354.3898, 419.1313
354.8719, 455.3044
355.3541, 473.3955
355.8362, 469.7987
356.3183, 463.0168
356.8004, 452.3661
357.2825, 442.8757
357.7646, 441.6420
358.2468, 449.6848
358.7289, 461.1451
359.2110, 470.2263
359.6931, 476.9130
360.1752, 480.6088
360.6573, 478.8893
361.1395, 477.0699
361.6216, 480.4113
362.1037, 485.4919
362.5858, 482.2850
363.0679, 462.9998
363.5500, 435.5691
364.0322, 432.6289
364.5143, 476.3453
364.9964, 510.5454
365.4785, 524.4312
365.9606, 528.4098
366.4427, 530.1398
366.9249, 531.9469
367.4070, 534.6747
367.8891, 540.5071
368.3712, 549.9268
368.8533, 555.2469
369.3354, 553.3861
369.8176, 549.7921
370.2997, 545.8909
370.7818, 542.7006
371.2639, 543.4504
371.7460, 552.3593
372.2281, 565.2789
372.7103, 574.3787
373.1924, 578.9994
373.6745, 584.7112
374.1566, 597.1051
374.6387, 611.5231
375.1208, 617.8929
375.6030, 612.2952
376.0851, 604.6622
376.5672, 598.3215
377.0493, 593.8910
377.5314, 594.1260
378.0135, 600.5646
378.4957, 607.3987
378.9778, 606.0638
379.4599, 592.9321
379.9420, 582.6049
380.4241, 580.2126
380.9063, 576.7146
381.3884, 565.3699
381.8705, 546.9124
382.3526, 525.1881
382.8347, 502.1171
383.3168, 478.7814
383.7990, 465.3939
384.2811, 477.7377
384.7632, 481.2126
385.2453, 461.2190
385.7274, 434.6516
386.2095, 422.0181
386.6917, 430.0631
387.1738, 445.2505
387.6559, 445.8042
388.1380, 427.4717
388.6201, 412.5845
389.1022, 408.0697
389.5844, 404.2271
390.0665, 392.2046
390.5486, 375.2749
391.0307, 366.2709
391.5128, 378.1410
391.9949, 399.3988
392.4771, 406.2391
392.9592, 396.7812
393.4413, 385.0299
393.9234, 376.7424
394.4055, 372.0194
394.8876, 370.8988
395.3698, 376.8199
395.8519, 381.7260
396.3340, 377.6427
396.8161, 368.1681
397.2982, 362.9070
397.7803, 365.4023
398.2625, 371.2153
398.7446, 374.2273
399.2267, 373.5116
399.7088, 371.6266
400.1909, 372.4279
400.6730, 369.5704
401.1552, 355.5206
401.6373, 333.8405
402.1194, 314.9773
402.6015, 306.1971
403.0836, 305.3641
403.5657, 302.7332
404.0479, 294.8419
404.5300, 288.7913
405.0121, 291.9823
405.4942, 293.9216
405.9763, 280.6880
406.4584, 251.5219
406.9406, 225.7908
407.4227, 230.1555
407.9048, 262.9902
408.3869, 275.1265
408.8690, 251.3899
409.3511, 227.2305
409.8333, 224.8752
410.3154, 237.2943
410.7975, 250.0587
411.2796, 259.1091
411.7617, 265.9994
412.2438, 272.1198
412.7260, 277.4421
413.2081, 281.9724
413.6902, 286.0276
414.1723, 288.7786
414.6544, 287.1760
415.1365, 278.5443
415.6187, 275.7523
416.1008, 277.0768
416.5829, 287.8649
417.0650, 325.4663
417.5471, 384.6123
418.0292, 426.4747
418.5114, 415.3945
418.9935, 354.9835
419.4756, 318.2338
419.9577, 325.7910
420.4398, 333.7347
420.9219, 337.8734
421.4041, 337.1962
421.8862, 328.9518
422.3683, 312.6075
422.8504, 295.4939
423.3325, 289.4003
423.8146, 296.3563
424.2968, 299.0070
424.7789, 296.8844
425.2610, 288.7804
425.7431, 270.8672
426.2252, 246.4092
426.7073, 225.1658
427.1895, 213.6359
427.6716, 206.1780
428.1537, 194.8969
428.6358, 179.8005
429.1179, 164.9784
429.6000, 152.0227
430.0822, 140.5021
430.5643, 129.1984
431.0464, 117.3679
431.5285, 107.7534
432.0106, 103.7798
432.4927, 100.9253
432.9749, 94.30164
433.4570, 83.33862
433.9391, 69.12280
434.4212, 50.96655
434.9033, 29.18298
435.3854, 21.67004
435.8676, 47.09277
436.3497, 65.13892
436.8318, 66.01282
437.3139, 56.03406
437.7960, 39.79993
438.2781, 19.51514
438.7603, 2.690674
439.2424, 2.659424
439.7245, 21.79858
440.2066, 35.15881
440.6887, 40.35938
441.1708, 39.55615
441.6530, 32.08801
442.1351, 20.02100
442.6172, 9.205078
443.0993, 3.508179
443.5814, 1.175781
444.0635, 12.99170
444.5457, 30.68616
445.0278, 39.49963
445.5099, 31.36597
445.9920, 14.28613
446.4741, 2.085571
446.9562, 6.439331
447.4384, 7.961426
447.9205, 4.955078
448.4026, 20.34644
448.8847, 27.66345
449.3668, 26.69214
449.8489, 22.35535
450.3311, 17.79785
450.8132, 13.40894
451.2953, 11.88416
451.7774, 12.89917
452.2595, 17.60657
452.7416, 33.49988
453.2238, 48.54480
453.7059, 49.59863
454.1880, 34.72986
454.6701, 16.88831
455.1522, 9.531250
455.6343, 11.52625
456.1165, 11.20862
456.5986, 6.469238
457.0807, 2.754883
457.5628, 5.214600
458.0449, 10.86426
458.5270, 14.14941
459.0092, 12.11035
459.4913, 10.32300
459.9734, 15.27661
460.4555, 23.40405
460.9376, 24.83240
461.4197, 16.28918
461.9019, 3.967651
462.3840, 4.532349
462.8661, 8.677979
463.3482, 10.69836
463.8303, 7.949463
464.3124, 5.883301
464.7946, 8.619019
465.2767, 13.77722
465.7588, 15.85095
466.2409, 11.89343
466.7230, 5.794678
467.2051, 6.898315
467.6873, 18.82446
468.1694, 25.50720
468.6515, 17.25769
469.1336, 9.751587
469.6157, 14.27368
470.0978, 28.43713
470.5800, 39.91821
471.0621, 40.14380
471.5442, 34.90845
472.0263, 31.64771
472.5084, 30.41016
472.9905, 35.01624
473.4727, 50.75342
473.9548, 69.70068
474.4369, 72.71948
474.9190, 53.83533
475.4011, 40.51038
475.8832, 38.72766
476.3654, 43.71301
476.8475, 54.65674
477.3296, 69.22034
477.8117, 79.84314
478.2938, 79.95911
478.7759, 72.46301
479.2581, 74.29895
479.7402, 93.31494
480.2223, 109.3340
480.7044, 121.6498
481.1865, 128.5377
481.6686, 125.5410
482.1508, 113.3334
482.6329, 102.4124
483.1150, 104.3663
483.5971, 114.6364
484.0792, 116.6644
484.5613, 108.4854
485.0435, 98.79993
485.5256, 93.35449
486.0077, 89.49780
486.4898, 79.99255
486.9719, 59.24146
487.4540, 43.14551
487.9362, 41.77478
488.4183, 46.84827
488.9004, 46.80383
489.3825, 39.98828
489.8646, 33.00134
490.3467, 31.98206
490.8289, 36.88940
491.3110, 42.38782
491.7931, 49.97888
492.2752, 56.32666
492.7573, 62.28198
493.2394, 66.06348
493.7216, 63.76135
494.2037, 54.81030
494.6858, 47.35583
495.1679, 51.37659
495.6500, 65.13623
496.1321, 76.24927
496.6143, 83.58813
497.0964, 89.01746
497.5785, 92.16992
498.0606, 94.45129
498.5427, 99.39990
499.0248, 109.3969
499.5070, 119.0054
499.9891, 125.8491
500.4712, 130.4900
500.9533, 132.6821
501.4355, 132.5964
501.9176, 133.3293
502.3997, 138.7828
502.8818, 150.0480
503.3639, 156.4486
503.8460, 152.6912
504.3282, 150.6526
504.8103, 151.5597
505.2924, 155.4124
505.7745, 162.6412
506.2566, 172.7196
506.7387, 183.2001
507.2209, 193.0991
507.7030, 202.0692
508.1851, 204.5963
508.6672, 197.3802
509.1493, 190.7457
509.6314, 190.9004
510.1136, 196.7852
510.5957, 205.9570
511.0778, 226.4192
511.5599, 239.8705
512.0420, 230.4338
512.5241, 212.1975
513.0062, 206.4401
513.4883, 217.1138
513.9705, 234.2723
514.4526, 247.9363
514.9347, 257.9354
515.4168, 268.0148
515.8989, 280.8472
516.3810, 289.9905
516.8632, 290.8864
517.3453, 289.4363
517.8274, 292.3943
518.3095, 301.2852
518.7916, 311.1632
519.2737, 317.4545
519.7559, 321.1355
520.2380, 324.6805
520.7201, 327.3652
521.2022, 331.6467
521.6843, 339.9689
522.1664, 351.0676
522.6486, 360.4357
523.1307, 366.4154
523.6128, 373.1545
524.0949, 381.3823
524.5770, 391.3241
525.0591, 406.1815
525.5413, 424.8721
526.0234, 438.2522
526.5055, 436.2699
526.9876, 421.3446
527.4697, 421.9155
527.9518, 452.7201
528.4340, 474.5240
528.9161, 468.2247
529.3982, 456.9269
529.8803, 464.6528
530.3624, 493.9851
530.8445, 521.3579
531.3267, 528.3564
531.8088, 523.0973
532.2909, 519.8390
532.7730, 519.2501
533.2551, 528.0928
533.7372, 554.9990
534.2194, 589.5477
534.7015, 600.2352
535.1836, 564.4500
535.6657, 549.8933
536.1478, 578.3582
536.6299, 618.7816
537.1121, 651.5297
537.5942, 673.9203
538.0763, 688.1261
538.5584, 694.7977
539.0405, 696.4673
539.5226, 700.4152
540.0048, 707.6283
540.4869, 713.8180
540.9690, 719.8160
541.4511, 722.7678
541.9332, 718.7361
542.4153, 708.7479
542.8975, 700.8673
543.3796, 700.1620
543.8617, 701.7477
544.3438, 700.1384
544.8259, 695.9890
545.3080, 692.7283
545.7902, 691.6580
546.2723, 692.3048
546.7544, 694.3777
547.2365, 698.9093
547.7186, 700.1448
548.2007, 696.4089
548.6829, 691.7161
549.1650, 687.0310
549.6471, 682.5703
550.1292, 678.0071
550.6113, 673.2677
551.0934, 671.1088
551.5756, 678.4727
552.0577, 693.3990
552.5398, 699.4587
553.0219, 692.9170
553.5040, 681.9092
553.9861, 670.1537
554.4683, 658.7743
554.9504, 652.0442
555.4325, 647.9680
555.9146, 651.2875
556.3967, 675.1302
556.8788, 700.8183
557.3610, 702.7775
557.8431, 679.3285
558.3252, 651.7985
558.8073, 639.0560
559.2894, 640.0558
559.7715, 646.4424
560.2537, 664.9360
560.7358, 672.2335
561.2179, 653.7082
561.7000, 625.9240
562.1821, 599.4632
562.6642, 575.2184
563.1464, 558.0136
563.6285, 556.8584
564.1106, 560.6054
564.5927, 554.7141
565.0748, 540.7531
565.5569, 529.4147
566.0391, 526.4616
566.5212, 528.1331
567.0033, 526.2863
567.4854, 519.6565
567.9675, 512.2405
568.4496, 504.5868
568.9318, 495.7742
569.4139, 481.7512
569.8960, 466.9961
570.3781, 460.8307
570.8602, 468.2642
571.3423, 479.1885
571.8245, 483.2555
572.3066, 480.7222
572.7887, 470.6572
573.2708, 450.2701
573.7529, 433.2509
574.2350, 433.4795
574.7172, 447.7991
575.1993, 450.6019
575.6814, 435.9216
576.1635, 418.0786
576.6456, 392.3273
577.1277, 370.1383
577.6099, 367.0767
578.0920, 382.2511
578.5741, 398.3682
579.0562, 401.7086
579.5383, 393.9349
580.0204, 380.9890
580.5026, 361.6647
580.9847, 341.1339
581.4668, 317.6595
581.9489, 296.7146
582.4310, 285.1718
582.9132, 282.9080
583.3953, 279.6315
583.8774, 275.4465
584.3596, 266.5160
584.8417, 242.7730
585.3238, 212.3325
585.8059, 197.0836
586.2880, 205.4309
586.7701, 221.3738
587.2523, 221.6901
587.7344, 204.8788
588.2165, 181.4760
588.6986, 138.5985
589.1807, 106.3105
589.6628, 100.3969
590.1450, 108.4018
590.6271, 115.6201
591.1092, 119.8158
591.5913, 117.1888
592.0734, 101.4254
592.5555, 78.73236
593.0377, 56.98169
593.5198, 37.50604
594.0019, 25.51239
594.4840, 25.51508
594.9661, 32.76447
595.4482, 32.54187
595.9304, 14.49249
596.4125, 7.091736
596.8946, 21.75024
597.3767, 35.62079
597.8588, 32.12286
598.3409, 17.64600
598.8231, 10.73041
599.3052, 23.05017
599.7873, 37.84845
600.2694, 32.31183
600.7515, 11.19110
601.2336, 4.338745
601.7158, 9.954834
602.1979, 11.01056
602.6800, 11.41132
603.1621, 11.20807
603.6442, 11.16278
604.1263, 13.60791
604.6085, 13.13794
605.0906, 5.986450
605.5727, 2.416138
606.0548, 8.675110
606.5369, 11.60681
607.0190, 9.561096
607.5012, 1.501343
607.9833, 15.53491
608.4654, 16.72150
608.9475, 4.763855
609.4296, 1.639099
609.9117, 4.973450
610.3939, 15.00952
610.8760, 17.23627
611.3581, 10.98309
611.8402, 7.286621
612.3223, 7.725159
612.8044, 9.246521
613.2866, 12.23444
613.7687, 14.88788
614.2508, 14.40613
614.7329, 10.46814
615.2150, 5.932922
615.6971, 2.778137
616.1793, 1.382935
616.6614, 5.492554
617.1435, 17.25635
617.6256, 23.40332
618.1077, 15.80914
618.5898, 2.949036
619.0720, 1.852295
619.5541, 2.407349
620.0362, 3.112427
620.5183, 8.510193
621.0004, 17.71680
621.4825, 10.99127
621.9647, 3.727722
622.4468, 10.63855
622.9289, 4.449524
623.4110, 6.195190
623.8931, 9.095764
624.3752, 4.601807
624.8574, 9.970398
625.3395, 31.66681
625.8216, 45.54803
626.3037, 35.34131
626.7858, 13.57568
627.2679, 0.3608400
627.7501, 2.875000
628.2322, 3.078430
628.7143, 8.2153000E-02
629.1964, 3.801514
629.6785, 6.309326
630.1606, 7.501709
630.6428, 6.759644
631.1249, 3.816162
631.6070, 1.774475
632.0891, 6.040222
632.5712, 16.99512
633.0533, 28.34827
633.5355, 42.36041
634.0176, 51.90222
634.4997, 50.40845
634.9818, 43.00549
635.4639, 37.80255
635.9460, 35.54688
636.4282, 34.49982
636.9103, 32.60193
637.3924, 32.84259
637.8745, 41.32574
638.3566, 54.44647
638.8387, 60.85095
639.3209, 54.66718
639.8030, 43.64972
640.2851, 42.64252
640.7672, 53.05414
641.2493, 57.01538
641.7314, 48.73151
642.2136, 43.08124
642.6957, 52.56049
643.1778, 69.05273
643.6599, 77.52289
644.1420, 73.58911
644.6241, 71.17914
645.1063, 76.68842
645.5884, 84.51685
646.0705, 90.25122
646.5526, 93.60553
647.0347, 94.72876
647.5168, 93.51385
647.9990, 92.55206
648.4811, 98.47021
648.9632, 112.4975
649.4453, 116.7819
649.9274, 104.1315
650.4095, 93.75909
650.8917, 99.22797
651.3738, 114.2411
651.8559, 125.7365
652.3380, 132.2941
652.8201, 137.3860
653.3022, 139.1614
653.7844, 142.0435
654.2665, 151.7845
654.7486, 166.2441
655.2307, 178.1552
655.7128, 183.8209
656.1949, 186.2015
656.6771, 188.9822
657.1592, 192.1790
657.6413, 200.4066
658.1234, 215.2439
658.6055, 232.0540
659.0876, 249.5052
659.5698, 266.3243
660.0519, 279.2206
660.5340, 286.9108
661.0161, 294.2766
661.4982, 303.1969
661.9803, 311.2208
662.4625, 312.4937
662.9446, 312.4854
663.4267, 323.7474
663.9088, 351.7939
664.3909, 386.5643
664.8730, 413.1661
665.3552, 432.5375
665.8373, 457.6321
666.3194, 491.9991
666.8015, 524.2521
667.2836, 543.3105
667.7657, 556.9613
668.2479, 587.0376
668.7300, 641.4362
669.2121, 692.2692
669.6942, 726.4564
670.1763, 766.4422
670.6584, 827.0057
671.1406, 902.1699
671.6227, 979.9719
672.1048, 1056.241
672.5869, 1135.841
673.0690, 1221.221
673.5511, 1313.874
674.0333, 1419.724
674.5154, 1539.306
674.9975, 1660.560
675.4796, 1776.688
675.9617, 1894.285
676.4438, 2023.857
676.9260, 2165.986
677.4081, 2318.243
677.8902, 2485.684
678.3723, 2657.374
678.8544, 2837.496
679.3365, 3015.230
679.8187, 3172.615
680.3008, 3305.744
680.7829, 3435.452
681.2650, 3586.049
681.7471, 3737.649
682.2292, 3862.686
682.7114, 3957.899
683.1935, 4011.446
683.6756, 4016.905
684.1577, 3989.689
684.6398, 3955.130
685.1219, 3919.508
685.6041, 3820.643
686.0862, 3616.271
686.5683, 3407.156
687.0504, 3221.872
687.5325, 3041.982
688.0146, 2847.063
688.4968, 2635.919
688.9789, 2426.945
689.4610, 2221.262
689.9431, 2026.272
690.4252, 1846.587
690.9073, 1682.536
691.3895, 1537.068
691.8716, 1409.560
692.3537, 1296.407
692.8358, 1194.579
693.3179, 1103.569
693.8000, 1015.949
694.2822, 929.6567
694.7643, 853.1333
695.2464, 791.3251
695.7285, 737.6619
696.2106, 686.0695
696.6927, 636.8434
697.1749, 593.9116
697.6570, 562.4356
698.1391, 531.6578
698.6212, 492.9861
699.1033, 455.0204
699.5854, 430.6738
700.0676, 418.6964
700.5497, 405.2270
701.0318, 379.7776
701.5139, 349.6895
701.9960, 330.2496
702.4781, 321.1985
702.9603, 312.4491
703.4424, 303.1021
703.9245, 290.7195
704.4066, 271.5254
704.8887, 247.9644
705.3708, 230.8676
705.8530, 223.4282
706.3351, 217.7728
706.8172, 217.3656
707.2993, 215.1827
707.7814, 204.6232
708.2635, 189.2428
708.7457, 177.0758
709.2278, 171.2483
709.7099, 168.0829
710.1920, 166.4000
710.6741, 164.2650
711.1563, 156.5195
711.6384, 143.5559
712.1205, 130.9810
712.6026, 121.3053
713.0847, 115.4119
713.5668, 115.7299
714.0490, 124.7196
714.5311, 130.8868
715.0132, 132.7982
715.4953, 132.2113
715.9774, 128.0558
716.4595, 122.5178
716.9417, 118.6287
717.4238, 116.8820
717.9059, 112.9831
718.3880, 99.56311
718.8701, 88.55890
719.3522, 92.76758
719.8344, 104.9499
720.3165, 110.9479
720.7986, 107.2094
721.2807, 100.5484
721.7628, 96.88098
722.2449, 96.28925
722.7271, 98.41571
723.2092, 104.1749
723.6913, 108.0740
724.1734, 107.4169
724.6555, 106.1835
725.1376, 109.5804
725.6198, 116.9683
726.1019, 113.2271
726.5840, 84.78455
727.0661, 65.67236
727.5482, 65.74469
728.0303, 72.04138
728.5125, 77.08032
728.9946, 79.66119
729.4767, 79.34399
729.9588, 74.51007
730.4409, 70.58844
730.9230, 74.30615
731.4052, 82.37012
731.8873, 88.01990
732.3694, 90.61676
732.8515, 91.42261
733.3336, 91.02155
733.8157, 90.05469
734.2979, 90.75555
734.7800, 94.84106
735.2621, 90.92639
735.7442, 67.92548
736.2263, 55.51453
736.7084, 81.27960
737.1906, 118.8222
737.6727, 127.9105
738.1548, 101.4997
738.6369, 84.67004
739.1190, 98.23743
739.6011, 113.3363
740.0833, 112.6013
740.5654, 102.4946
741.0475, 92.66437
741.5296, 85.59564
742.0117, 79.23755
742.4938, 70.39728
742.9760, 62.25677
743.4581, 64.74109
743.9402, 76.31610
744.4223, 80.31329
744.9044, 71.33557
745.3865, 61.59302
745.8687, 63.76923
746.3508, 75.31384
746.8329, 75.63202
747.3150, 53.49487
747.7971, 40.59491
748.2792, 47.16211
748.7614, 56.63464
749.2435, 60.78613
749.7256, 60.60773
750.2077, 59.85925
750.6898, 60.20831
751.1719, 58.03949
751.6541, 45.99286
752.1362, 34.73962
752.6183, 39.92688
753.1004, 55.52533
753.5825, 60.97626
754.0646, 47.92206
754.5468, 32.53735
755.0289, 42.35901
755.5110, 70.22284
755.9931, 67.45288
756.4752, 30.19757
756.9573, 6.335693
757.4395, 17.50226
757.9216, 40.28632
758.4037, 44.47833
758.8858, 28.49420
759.3679, 18.00165
759.8500, 14.30414
760.3322, 14.63483
760.8143, 24.24567
761.2964, 33.27509
761.7785, 32.04492
762.2606, 22.61377
762.7427, 15.95337
763.2249, 17.40497
763.7070, 20.34521
764.1891, 21.56213
764.6712, 20.94489
765.1533, 17.32379
765.6354, 11.48041
766.1176, 6.541565
766.5997, 4.286255
767.0818, 3.453796
767.5639, 2.073669
768.0460, 0.1977540
768.5281, 1.532043
769.0103, 3.191040
769.4924, 3.464661
769.9745, 0.7420650
770.4566, 1.787537
770.9387, 2.009094
771.4208, 14.97351
771.9030, 18.15155
772.3851, 0.7791750
772.8672, 12.57324
773.3493, 15.32678
773.8314, 12.39960
774.3135, 6.457275
774.7957, 1.241699
775.2778, 6.484375
775.7599, 5.615540
776.2420, 4.279236
776.7241, 6.977478
777.2062, 11.51569
777.6884, 14.72540
778.1705, 15.59418
778.6526, 11.84772
779.1347, 1.286743
779.6168, 9.378113
780.0989, 5.446960
780.5811, 10.58417
781.0632, 11.61462
781.5453, 6.530212
782.0274, 21.02679
782.5095, 20.34247
782.9916, 10.69745
783.4738, 1.749207
783.9559, 7.327515
784.4380, 11.23663
784.9201, 5.652100
785.4022, 0.4207150
785.8843, 2.245850
786.3665, 3.724365
786.8486, 5.358215
787.3307, 6.774109
787.8128, 6.672729
788.2949, 2.070068
788.7770, 0.7517090
789.2592, 2.866089
789.7413, 9.059937
790.2234, 13.89246
790.7055, 16.92041
791.1876, 19.44147
791.6697, 22.21021
792.1519, 24.11194
792.6340, 23.82611
793.1161, 21.33093
793.5982, 15.18378
794.0803, 5.452332
794.5624, 0.8162840
795.0446, 7.3425002E-02
795.5267, 4.247253
796.0088, 7.726746
796.4909, 10.73334
796.9730, 10.90540
797.4551, 4.936096
797.9373, 0.4176030
798.4194, 0.7006840
798.9015, 2.930237
799.3836, 5.599121
799.8657, 8.754333
800.3478, 9.422180
800.8300, 3.094238
801.3121, 2.471497
801.7942, 5.388062
802.2763, 5.680115
802.7584, 1.667236
803.2405, 4.922791
803.7227, 10.30096
804.2048, 12.54315
804.6869, 12.57501
805.1690, 9.101135
805.6511, 4.648865
806.1332, 2.824951
806.6154, 4.627441
807.0975, 10.83307
807.5796, 19.75720
808.0617, 26.76575
808.5438, 24.15411
809.0259, 14.60577
809.5081, 14.07190
809.9902, 24.15491
810.4723, 31.37311
810.9544, 33.29810
811.4365, 33.79199
811.9186, 33.56769
812.4008, 33.01709
812.8829, 36.33221
813.3650, 48.83496
813.8471, 56.20282
814.3292, 55.94513
814.8113, 53.82355
815.2935, 52.27576
815.7756, 49.54340
816.2577, 42.23645
816.7398, 29.64185
817.2219, 21.12366
817.7040, 22.90356
818.1862, 27.79968
818.6683, 30.64441
819.1504, 32.92712
819.6325, 38.31232
820.1146, 46.33734
820.5967, 51.81647
821.0789, 50.86157
821.5610, 46.38708
822.0431, 41.40430
822.5252, 36.63116
823.0073, 35.53168
823.4894, 38.17450
823.9716, 39.39795
824.4537, 36.22510
824.9358, 31.31702
825.4179, 29.80658
825.9000, 32.19037
826.3821, 30.09888
826.8643, 20.97052
827.3464, 15.04224
827.8285, 16.72699
828.3106, 21.62482
828.7927, 25.66748
829.2748, 28.30249
829.7570, 29.18634
830.2391, 26.96759
830.7212, 26.55054
831.2033, 28.26300
831.6854, 32.31067
832.1675, 44.29779
832.6497, 57.44354
833.1318, 55.15503
833.6139, 29.75671
834.0960, 10.37646
834.5781, 20.37628
835.0602, 34.28497
835.5424, 27.17584
836.0245, 8.565552
836.5066, 3.211975
836.9887, 3.149902
837.4708, 4.619019
837.9529, 21.37061
838.4351, 37.84174
838.9172, 36.21753
839.3993, 22.21460
839.8814, 13.89636
840.3635, 14.09869
840.8456, 17.79523
841.3278, 22.28717
841.8099, 25.99304
842.2920, 26.69971
842.7741, 24.93140
843.2562, 20.67914
843.7383, 11.81372
844.2205, 7.455994
844.7026, 13.77460
845.1847, 21.87134
845.6668, 20.02911
846.1489, 8.086548
846.6310, 1.568298
847.1132, 1.979919
847.5953, 6.196899
848.0774, 20.50812
848.5595, 32.23639
849.0416, 30.91144
849.5237, 21.46289
850.0059, 15.24591
850.4880, 14.47717
850.9701, 16.25403
851.4522, 24.39758
851.9343, 29.79730
852.4164, 24.17908
852.8986, 12.57159
853.3807, 0.5314330
853.8628, 9.843384
854.3449, 14.37036
854.8270, 8.043396
855.3091, 2.133484
855.7913, 10.92334
856.2734, 16.52850
856.7555, 11.00543
857.2376, 3.473145
857.7197, 10.36951
858.2018, 0.4550170
858.6840, 14.32642
859.1661, 15.09955
859.6482, 4.197266
860.1303, 4.951294
860.6124, 12.02350
861.0945, 10.56714
861.5767, 2.757202
862.0588, 17.78613
862.5409, 25.12457
863.0230, 24.84210
863.5051, 15.87836
863.9872, 9.621216
864.4694, 18.36548
864.9515, 3.861267
865.4336, 25.94940
865.9157, 29.73981
866.3978, 21.97937
866.8799, 16.26050
867.3621, 14.03235
867.8442, 7.850952
868.3263, 12.86853
868.8084, 24.73560
869.2905, 14.28461
869.7726, 3.370850
870.2548, 17.27167
870.7369, 25.39490
871.2190, 24.73535
871.7011, 8.554138
872.1832, 5.079651
872.6653, 4.477234
873.1475, 0.3276980
873.6296, 5.110352
874.1117, 13.23822
874.5938, 9.822693
875.0759, 8.717834
875.5580, 25.79272
876.0402, 24.75037
876.5223, 17.57471
877.0044, 18.95898
877.4865, 26.65411
877.9686, 38.73743
878.4507, 52.65552
878.9329, 57.20276
879.4150, 44.42181
879.8971, 25.09912
880.3792, 16.18701
880.8613, 16.76746
881.3434, 23.10889
881.8256, 34.83008
882.3077, 47.12390
882.7898, 58.50739
883.2719, 67.62006
883.7540, 72.98633
884.2361, 74.79431
884.7183, 72.93781
885.2004, 64.78754
885.6825, 66.94775
886.1646, 87.71350
886.6467, 104.3022
887.1288, 101.4683
887.6110, 86.80334
888.0931, 75.50970
888.5752, 66.30988
889.0573, 65.85742
889.5394, 82.42395
890.0215, 96.41425
890.5037, 99.92706
890.9858, 101.7244
891.4679, 110.5348
891.9500, 124.0869
892.4321, 132.8516
892.9142, 133.2543
893.3964, 132.4202
893.8785, 128.7320
894.3606, 126.6541
894.8427, 131.5703
895.3248, 140.1135
895.8069, 148.0939
896.2891, 153.9485
896.7712, 153.6535
897.2533, 137.1208
897.7354, 122.9286
898.2175, 127.3071
898.6996, 138.5358
899.1818, 140.4883
899.6639, 135.6853
900.1460, 138.6674
900.6281, 156.0896
901.1102, 175.5661
901.5923, 188.4381
902.0745, 194.0805
902.5566, 187.1942
903.0387, 173.2339
903.5208, 168.2781
904.0029, 174.6220
904.4850, 178.2836
904.9672, 167.6257
905.4493, 153.2230
905.9314, 157.2570
906.4135, 174.4284
906.8956, 181.3973
907.3777, 176.9316
907.8599, 172.8049
908.3420, 173.8950
908.8241, 177.7621
909.3062, 181.6772
909.7883, 185.6104
910.2704, 189.7301
910.7526, 194.0991
911.2347, 196.1599
911.7168, 194.3694
912.1990, 195.4272
912.6811, 206.2322
913.1632, 219.4642
913.6453, 217.8940
914.1274, 197.9752
914.6096, 183.6711
915.0917, 172.9769
915.5738, 171.8154
916.0559, 190.3110
916.5380, 209.5055
917.0201, 210.9709
917.5023, 198.0970
917.9844, 188.7496
918.4665, 183.3190
918.9486, 181.4125
919.4307, 186.9093
919.9128, 192.2179
920.3950, 193.7378
920.8771, 194.1555
921.3592, 197.5397
921.8413, 202.9443
922.3234, 204.2238
922.8055, 202.5687
923.2877, 196.9989
923.7698, 179.5961
924.2519, 165.8982
924.7340, 170.4438
925.2161, 184.9785
925.6982, 194.0891
926.1804, 193.7281
926.6625, 189.0288
927.1446, 178.4618
927.6267, 171.3956
928.1088, 173.8920
928.5909, 180.0667
929.0731, 183.1658
929.5552, 183.6959
930.0373, 186.6024
930.5194, 195.5673
931.0015, 200.7200
931.4836, 187.5304
931.9658, 172.7510
932.4479, 178.4827
932.9300, 194.3152
933.4121, 199.8510
933.8942, 192.0679
934.3763, 179.1111
934.8585, 163.5494
935.3406, 151.5919
935.8227, 154.7035
936.3048, 163.4911
936.7869, 161.3711
937.2690, 150.3612
937.7512, 139.9425
938.2333, 133.3943
938.7154, 130.0706
939.1975, 131.3032
939.6796, 132.5186
940.1617, 122.9413
940.6439, 106.5669
941.1260, 96.94409
941.6081, 94.58521
942.0902, 89.92627
942.5723, 78.40857
943.0544, 69.14380
943.5366, 76.59973
944.0187, 94.37207
944.5008, 99.55261
944.9829, 92.64014
945.4650, 74.00891
945.9471, 43.85974
946.4293, 21.78979
946.9114, 20.78796
947.3935, 30.08643
947.8756, 28.21582
948.3577, 16.15027
948.8398, 18.98071
949.3220, 37.80762
949.8041, 56.17322
950.2862, 71.00256
950.7683, 75.93616
951.2504, 63.62439
951.7325, 41.78320
952.2147, 33.52258
952.6968, 41.77039
953.1789, 41.74780
953.6610, 30.81201
954.1431, 20.18579
954.6252, 12.10498
955.1074, 9.859741
955.5895, 18.06494
956.0716, 34.59851
956.5537, 47.99207
957.0358, 57.49451
957.5179, 66.99170
958.0001, 78.16284
958.4822, 86.09375
958.9643, 89.16760
959.4464, 87.03088
959.9285, 76.13525
960.4106, 57.43689
960.8928, 54.88062
961.3749, 78.70227
961.8570, 96.75073
962.3391, 100.4155
962.8212, 106.7692
963.3033, 131.8802
963.7855, 159.4641
964.2676, 160.8370
964.7497, 132.5811
965.2318, 116.7899
965.7139, 116.4934
966.1960, 124.1212
966.6782, 150.5331
967.1603, 172.4844
967.6424, 166.5774
968.1245, 150.6211
968.6066, 162.4589
969.0887, 210.8395
969.5709, 242.3867
970.0530, 244.2288
970.5351, 242.6984
971.0172, 236.0925
971.4993, 235.8494
971.9814, 256.0245
972.4636, 285.5514
972.9457, 300.8722
973.4278, 296.5416
973.9099, 292.7941
974.3920, 290.5265
974.8741, 291.5530
975.3563, 298.9598
975.8384, 308.1066
976.3205, 315.2494
976.8026, 319.7314
977.2847, 323.5767
977.7668, 326.3691
978.2490, 332.2594
978.7311, 345.4761
979.2132, 357.9607
979.6953, 368.6066
980.1774, 374.9341
980.6595, 370.2776
981.1417, 358.7968
981.6238, 358.0001
982.1059, 378.3859
982.5880, 390.2448
983.0701, 375.8508
983.5522, 362.0529
984.0344, 366.4313
984.5165, 375.6692
984.9986, 374.9895
985.4807, 364.4082
985.9628, 350.5212
986.4449, 330.8231
986.9271, 319.0179
987.4092, 326.8427
987.8913, 334.0406
988.3734, 325.8654
988.8555, 309.7479
989.3376, 294.3530
989.8198, 281.6045
990.3019, 272.1119
990.7840, 267.6920
991.2661, 262.8306
991.7482, 254.1099
992.2303, 245.1912
992.7125, 243.0178
993.1946, 239.9545
993.6767, 218.2753
994.1588, 180.7100
994.6409, 162.1776
995.1230, 191.5824
995.6052, 213.6781
996.0873, 193.0132
996.5694, 165.5834
997.0515, 158.1328
997.5336, 162.8590
998.0157, 167.5011
998.4979, 168.9879
998.9800, 164.1519
999.4621, 144.6324
999.9442, 129.9001
1000.426, 134.7705
1000.908, 142.7908
1001.391, 139.2844
1001.873, 130.3429
1002.355, 127.1230
1002.837, 131.2349
1003.319, 136.4152
1003.801, 140.2223
1004.283, 144.2679
1004.765, 151.3179
1005.247, 157.0629
1005.730, 158.7240
1006.212, 156.2855
1006.694, 148.9388
1007.176, 137.1891
1007.658, 126.5980
1008.140, 118.5740
1008.622, 113.5875
1009.104, 113.2750
1009.587, 114.7505
1010.069, 116.0840
1010.551, 117.3618
1011.033, 120.9070
1011.515, 126.2671
1011.997, 124.8517
1012.479, 106.4271
1012.961, 89.90942
1013.443, 82.93652
1013.926, 81.62878
1014.408, 87.12830
1014.890, 94.20093
1015.372, 94.57593
1015.854, 87.32251
1016.336, 79.41748
1016.818, 70.55029
1017.300, 65.47083
1017.783, 72.31982
1018.265, 77.32776
1018.747, 67.12720
1019.229, 49.74548
1019.711, 38.01099
1020.193, 33.59619
1020.675, 31.14600
1021.157, 30.51294
1021.639, 29.34277
1022.122, 23.44580
1022.604, 20.30115
1023.086, 31.91174
1023.568, 45.81702
1024.050, 39.93665
1024.532, 13.91919
1025.014, 3.909302
1025.496, 0.6781010
1025.979, 4.405518
1026.461, 0.2110600
1026.943, 5.877808
1027.425, 7.272949
1027.907, 7.604736
1028.389, 14.25354
1028.871, 26.34265
1029.353, 28.30542
1029.835, 6.240845
1030.318, 9.149902
1030.800, 5.385010
1031.282, 1.643799
1031.764, 14.19580
1032.246, 28.11621
1032.728, 20.24719
1033.210, 7.163574
1033.692, 21.80811
1034.174, 13.35168
1034.657, 3.179443
1035.139, 9.320068
1035.621, 19.95276
1036.103, 28.41760
1036.585, 32.99744
1037.067, 30.74109
1037.549, 22.44385
1038.031, 13.75134
1038.514, 1.364624
1038.996, 5.178467
1039.478, 0.9765630
1039.960, 3.745850
1040.442, 7.509033
1040.924, 19.34717
1041.406, 18.31335
1041.888, 6.853394
1042.370, 4.349609
1042.853, 20.37402
1043.335, 22.49292
1043.817, 3.294067
1044.299, 16.63794
1044.781, 2.286987
1045.263, 26.30762
1045.745, 33.00854
1046.227, 26.07153
1046.709, 15.83850
1047.192, 1.940186
1047.674, 3.418945
1048.156, 19.39917
1048.638, 35.85303
1049.120, 36.00391
1049.602, 32.88562
1050.084, 36.40234
1050.566, 43.19067
1051.049, 44.32605
1051.531, 38.68311
1052.013, 42.56885
1052.495, 58.72437
1052.977, 70.57690
1053.459, 75.30554
1053.941, 71.08496
1054.423, 54.28503
1054.906, 34.84143
1055.388, 30.80054
1055.870, 41.19373
1056.352, 55.22449
1056.834, 73.10974
1057.316, 80.28223
1057.798, 73.81616
1058.280, 70.78345
1058.762, 80.60522
1059.245, 92.14563
1059.727, 88.50989
1060.209, 75.60632
1060.691, 78.80896
1061.173, 95.05432
1061.655, 101.1781
1062.137, 95.97803
1062.619, 97.93506
1063.101, 114.5500
1063.584, 132.3184
1064.066, 136.8026
1064.548, 134.8783
1065.030, 139.3018
1065.512, 149.5657
1065.994, 168.3229
1066.476, 192.4272
1066.958, 204.0275
1067.441, 198.7740
1067.923, 197.9771
1068.405, 221.9541
1068.887, 250.3507
1069.369, 254.2535
1069.851, 244.9648
1070.333, 234.5498
1070.815, 229.4496
1071.297, 245.1309
1071.780, 279.3595
1072.262, 305.1349
1072.744, 306.1561
1073.226, 302.8597
1073.708, 311.2148
1074.190, 322.2975
1074.672, 327.1992
1075.154, 328.7803
1075.636, 330.9238
1076.119, 334.6025
1076.601, 340.7811
1077.083, 350.4751
1077.565, 358.6741
1078.047, 360.9562
1078.529, 363.2996
1079.011, 375.1412
1079.494, 383.6677
1079.976, 371.7926
1080.458, 347.5088
1080.940, 330.4482
1081.422, 324.0856
1081.904, 321.7040
1082.386, 331.5985
1082.868, 331.6653
1083.350, 301.4303
1083.833, 275.0486
1084.315, 282.3230
1084.797, 302.9681
1085.279, 303.5920
1085.761, 282.6663
1086.243, 266.0837
1086.725, 258.7365
1087.207, 246.8417
1087.689, 224.9927
1088.172, 208.5612
1088.654, 208.7882
1089.136, 210.1160
1089.618, 193.6694
1090.100, 164.4384
1090.582, 147.8949
1091.064, 146.6570
1091.546, 145.2841
1092.029, 144.6686
1092.511, 145.5566
1092.993, 148.6189
1093.475, 149.1932
1093.957, 143.0034
1094.439, 133.9543
1094.921, 132.5314
1095.403, 137.7000
1095.885, 127.3679
1096.368, 102.5282
1096.850, 91.66150
1097.332, 99.98303
1097.814, 104.3297
1098.296, 91.52795
1098.778, 76.83740
1099.260, 84.07568
1099.742, 101.8257
1100.224, 97.58862
1100.707, 79.59595
1101.189, 74.66394
1101.671, 81.24304
1102.153, 79.48621
1102.635, 65.42224
1103.117, 54.41736
1103.599, 61.34998
1104.081, 71.17517
1104.564, 68.15369
1105.046, 57.35706
1105.528, 39.35046
1106.010, 22.06409
1106.492, 22.22729
1106.974, 37.81274
1107.456, 44.35547
1107.938, 28.14001
1108.421, 14.85400
1108.903, 23.81812
1109.385, 33.34558
1109.867, 27.99829
1110.349, 17.60352
1110.831, 10.43750
1111.313, 7.712402
1111.795, 10.75208
1112.277, 20.97742
1112.760, 28.34668
1113.242, 32.50098
1113.724, 31.88232
1114.206, 21.84058
1114.688, 11.70691
1115.170, 4.396484
1115.652, 1.523438
1116.134, 6.969971
1116.616, 19.97021
1117.099, 28.45227
1117.581, 32.42944
1118.063, 31.51074
1118.545, 24.35559
1119.027, 16.02502
1119.509, 7.283569
1119.991, 1.283813
1120.473, 1.108154
1120.956, 4.901001
1121.438, 8.807129
1121.920, 12.67395
1122.402, 13.19629
1122.884, 10.35498
1123.366, 2.292236
1123.848, 10.67236
1124.330, 17.47632
1124.813, 11.86755
1125.295, 3.491211
1125.777, 5.531738
1126.259, 11.25403
1126.741, 4.800293
1127.223, 6.940552
1127.705, 6.326050
1128.187, 2.778931
1128.669, 1.118652
1129.151, 14.72351
1129.634, 24.32117
1130.116, 9.933105
1130.598, 2.638916
1131.080, 10.92432
1131.562, 30.20068
1132.044, 40.63525
1132.526, 43.16492
1133.008, 38.31689
1133.491, 28.30981
1133.973, 18.69568
1134.455, 10.23291
1134.937, 4.519409
1135.419, 0.5163570
1135.901, 0.5942380
1136.383, 19.31299
1136.865, 34.54382
1137.348, 27.00635
1137.830, 9.624146
1138.312, 0.7329100
1138.794, 0.2926030
1139.276, 8.945801
1139.758, 33.51099
1140.240, 44.72375
1140.722, 36.55933
1141.204, 30.20825
1141.687, 33.95032
1142.169, 39.17053
1142.651, 38.32288
1143.133, 33.34143
1143.615, 26.11938
1144.097, 18.16736
1144.579, 26.17468
1145.061, 47.00867
1145.543, 55.04175
1146.026, 47.65283
1146.508, 43.44287
1146.990, 51.35303
1147.472, 60.90723
1147.954, 61.29712
1148.436, 57.76294
1148.918, 55.81470
1149.400, 55.83459
1149.883, 60.65002
1150.365, 67.34363
1150.847, 68.90417
1151.329, 63.58228
1151.811, 59.19995
1152.293, 59.22949
1152.775, 59.46179
1153.257, 52.66064
1153.740, 52.04248
1154.222, 73.62000
1154.704, 96.85071
1155.186, 101.7618
1155.668, 93.45386
1156.150, 85.49573
1156.632, 78.22546
1157.114, 75.26147
1157.596, 79.14197
1158.078, 82.04114
1158.561, 83.85266
1159.043, 82.94934
1159.525, 77.82764
1160.007, 70.90601
1160.489, 63.67957
1160.971, 58.24292
1161.453, 61.41052
1161.935, 72.88000
1162.418, 91.44824
1162.900, 115.4440
1163.382, 122.0216
1163.864, 107.3202
1164.346, 87.38965
1164.828, 70.26917
1165.310, 61.52039
1165.792, 73.95105
1166.275, 90.15723
1166.757, 79.48462
1167.239, 60.13269
1167.721, 59.96399
1168.203, 74.36218
1168.685, 90.45630
1169.167, 104.3750
1169.649, 113.7361
1170.131, 117.0143
1170.614, 117.1558
1171.096, 107.7954
1171.578, 105.1953
1172.060, 127.8181
1172.542, 150.5878
1173.024, 149.0487
1173.506, 132.8285
1173.988, 124.7648
1174.470, 125.4200
1174.953, 119.2959
1175.435, 98.18909
1175.917, 97.95398
1176.399, 130.7151
1176.881, 147.9430
1177.363, 128.4640
1177.845, 105.3114
1178.327, 107.5452
1178.810, 125.3518
1179.292, 140.6458
1179.774, 152.0321
1180.256, 155.5685
1180.738, 152.6948
1181.220, 141.5160
1181.702, 124.6968
1182.184, 118.4913
1182.667, 128.8375
1183.149, 138.4126
1183.631, 130.4291
1184.113, 121.0807
1184.595, 128.9202
1185.077, 139.5715
1185.559, 138.4086
1186.041, 130.4196
1186.523, 121.0784
1187.005, 113.8470
1187.488, 116.6434
1187.970, 134.2122
1188.452, 145.3268
1188.934, 153.7560
1189.416, 146.0559
1189.898, 101.4540
1190.380, 72.10938
1190.862, 90.92944
1191.345, 123.4845
1191.827, 130.1996
1192.309, 117.1609
1192.791, 106.5599
1193.273, 98.30408
1193.755, 94.92456
1194.237, 96.50098
1194.719, 100.2184
1195.202, 104.9631
1195.684, 105.5530
1196.166, 99.33447
1196.648, 94.63086
1197.130, 101.7710
1197.612, 112.6389
1198.094, 118.5400
1198.576, 120.3694
1199.058, 118.5598
1199.541, 113.9152
1200.023, 106.6006
1200.505, 97.46521
1200.987, 89.39294
1201.469, 83.31970
1201.951, 78.09778
1202.433, 74.91870
1202.915, 69.39331
1203.397, 54.25403
1203.880, 44.21033
1204.362, 51.74634
1204.844, 62.53223
1205.326, 55.87744
1205.808, 37.06689
1206.290, 37.45276
1206.772, 59.24634
1207.254, 49.04309
1207.737, 6.268066
1208.219, 7.143677
1208.701, 20.58167
1209.183, 49.72974
1209.665, 59.01306
1210.147, 58.93860
1210.629, 59.61853
1211.111, 58.63159
1211.594, 50.34778
1212.076, 40.27942
1212.558, 36.33533
1213.040, 36.01868
1213.522, 32.11047
1214.004, 25.92419
1214.486, 29.36304
1214.968, 50.60522
1215.450, 59.94849
1215.932, 37.17908
1216.415, 20.99951
1216.897, 25.30420
1217.379, 32.03760
1217.861, 33.57263
1218.343, 31.77380
1218.825, 28.91980
1219.307, 24.52869
1219.789, 14.85376
1220.272, 0.1101070
1220.754, 4.074829
1221.236, 1.713135
1221.718, 6.300781
1222.200, 7.975342
1222.682, 12.03564
1223.164, 20.77063
1223.646, 28.56714
1224.129, 31.07959
1224.611, 29.50183
1225.093, 20.73853
1225.575, 12.74146
1226.057, 14.24121
1226.539, 21.63660
1227.021, 31.87134
1227.503, 42.41541
1227.985, 47.14539
1228.468, 43.86438
1228.950, 42.75989
1229.432, 49.42932
1229.914, 49.06726
1230.396, 35.19055
1230.878, 26.64001
1231.360, 33.01379
1231.842, 39.76416
1232.324, 33.18738
1232.807, 19.92529
1233.289, 13.57129
1233.771, 10.72339
1234.253, 14.18750
1234.735, 19.75769
1235.217, 19.54492
1235.699, 13.59900
1236.181, 2.254272
1236.664, 12.03345
1237.146, 12.24316
1237.628, 17.60205
1238.110, 42.19690
1238.592, 34.71326
1239.074, 24.11694
1239.556, 29.77356
1240.038, 34.91968
1240.521, 25.63782
1241.003, 12.62317
1241.485, 20.02661
1241.967, 44.77014
1242.449, 55.86304
1242.931, 50.54712
1243.413, 51.11609
1243.895, 58.96863
1244.377, 56.07397
1244.859, 38.07349
1245.342, 29.66467
1245.824, 45.43616
1246.306, 65.59985
1246.788, 72.03894
1247.270, 69.96240
1247.752, 59.66138
1248.234, 36.49792
1248.716, 27.92737
1249.199, 22.03394
1249.681, 18.43030
1250.163, 15.89905
1250.645, 15.24829
1251.127, 15.98132
1251.609, 19.22314
1252.091, 29.39282
1252.573, 34.94702
1253.056, 35.86340
1253.538, 30.62817
1254.020, 17.33167
1254.502, 4.420532
1254.984, 0.5069580
1255.466, 2.125244
1255.948, 14.48059
1256.430, 31.33508
1256.912, 27.78796
1257.395, 8.850098
1257.877, 0.2762450
1258.359, 0.1158450
1258.841, 0.0000000E+00
##END=



