##NAMES=Saneroite
##RRUFFID=R060488
##IDEAL CHEMISTRY=Na_2_(Mn^2+^,Mn^3+^)_10_V^5+^Si_11_O_34_(OH)_4_
##LOCALITY=Molinello mine, Val Graveglia (Graveglia Valley), Ne, Genova, Liguria, Italy
##OWNER=RRUFF
##SOURCE=Michael Scott
##DESCRIPTION=Orange colored blebs associated with white quartz, black braunite and brown parsettensite
##STATUS=The identification of this mineral has been confirmed by single-crystal X-ray diffraction.
##URL=rruff.info/R060488
88.256, 0.000
88.738, 4.987
89.220, 10.984
89.702, 16.454
90.184, 14.951
90.666, 13.071
91.148, 16.076
91.631, 26.286
92.113, 39.730
92.595, 52.665
93.077, 59.473
93.559, 61.679
94.041, 62.787
94.523, 63.116
95.005, 63.074
95.487, 62.217
95.970, 71.566
96.452, 89.189
96.934, 108.299
97.416, 120.507
97.898, 114.482
98.380, 104.810
98.862, 88.310
99.344, 80.950
99.826, 70.119
100.309, 59.273
100.791, 53.579
101.273, 38.759
101.755, 33.244
102.237, 23.522
102.719, 13.898
103.201, 2.215
103.683, 13.858
104.165, 25.436
104.648, 31.368
105.130, 31.856
105.612, 29.638
106.094, 24.500
106.576, 16.674
107.058, 6.367
107.540, 7.339
108.022, 22.597
108.505, 40.083
108.987, 60.244
109.469, 79.307
109.951, 95.360
110.433, 110.503
110.915, 127.655
111.397, 147.668
111.879, 168.693
112.362, 189.847
112.844, 207.388
113.326, 232.288
113.808, 271.126
114.290, 319.020
114.772, 363.674
115.254, 397.963
115.736, 430.699
116.218, 467.107
116.701, 511.710
117.183, 556.281
117.665, 597.318
118.147, 635.222
118.629, 673.904
119.111, 717.971
119.593, 762.533
120.075, 801.862
120.558, 834.050
121.040, 860.756
121.522, 885.577
122.004, 908.817
122.486, 920.768
122.968, 913.044
123.450, 889.157
123.932, 855.671
124.414, 808.799
124.897, 756.609
125.379, 708.558
125.861, 666.077
126.343, 626.982
126.825, 586.217
127.307, 545.811
127.789, 514.160
128.271, 501.068
128.753, 500.775
129.236, 499.187
129.718, 492.246
130.200, 485.626
130.682, 494.583
131.164, 518.830
131.646, 537.652
132.128, 524.251
132.610, 484.326
133.093, 462.100
133.575, 472.907
134.057, 508.244
134.539, 539.262
135.021, 565.995
135.503, 588.186
135.985, 604.025
136.467, 613.213
136.949, 621.045
137.432, 627.456
137.914, 632.566
138.396, 647.128
138.878, 676.936
139.360, 707.607
139.842, 712.999
140.324, 684.784
140.806, 654.893
141.288, 635.388
141.771, 627.444
142.253, 626.020
142.735, 634.012
143.217, 647.658
143.699, 655.358
144.181, 652.473
144.663, 650.507
145.145, 655.586
145.628, 670.272
146.110, 687.133
146.592, 707.552
147.074, 730.665
147.556, 747.714
148.038, 753.666
148.520, 757.558
149.002, 765.172
149.484, 778.651
149.967, 793.585
150.449, 812.294
150.931, 835.923
151.413, 849.842
151.895, 847.582
152.377, 838.743
152.859, 831.588
153.342, 832.209
153.824, 829.303
154.306, 818.719
154.788, 798.080
155.270, 781.412
155.752, 775.578
156.234, 773.607
156.716, 766.158
157.198, 742.487
157.680, 720.456
158.163, 708.739
158.645, 714.267
159.127, 714.208
159.609, 696.908
160.091, 669.849
160.573, 648.057
161.055, 641.129
161.538, 636.917
162.020, 628.818
162.502, 613.150
162.984, 598.332
163.466, 589.156
163.948, 584.108
164.430, 577.961
164.912, 566.168
165.394, 552.949
165.876, 541.715
166.359, 532.914
166.841, 527.020
167.323, 522.983
167.805, 521.397
168.287, 526.070
168.769, 545.343
169.251, 570.262
169.733, 590.667
170.216, 600.052
170.698, 605.603
171.180, 613.291
171.662, 623.164
172.144, 631.539
172.626, 632.215
173.108, 630.014
173.590, 633.252
174.072, 650.484
174.555, 672.472
175.037, 688.378
175.519, 697.265
176.001, 706.293
176.483, 724.090
176.965, 747.575
177.447, 768.069
177.929, 781.309
178.412, 788.894
178.894, 792.025
179.376, 789.886
179.858, 786.749
180.340, 786.101
180.822, 788.160
181.304, 793.906
181.786, 807.542
182.268, 825.130
182.751, 836.492
183.233, 838.420
183.715, 838.002
184.197, 848.016
184.679, 867.375
185.161, 883.542
185.643, 888.593
186.125, 883.634
186.607, 871.746
187.090, 849.832
187.572, 827.209
188.054, 823.808
188.536, 839.483
189.018, 858.138
189.500, 869.456
189.982, 873.919
190.464, 871.743
190.947, 858.425
191.429, 840.081
191.911, 838.117
192.393, 854.860
192.875, 872.233
193.357, 872.674
193.839, 856.498
194.321, 840.740
194.803, 829.412
195.286, 822.336
195.768, 816.452
196.250, 811.670
196.732, 809.077
197.214, 809.784
197.696, 813.787
198.178, 820.451
198.661, 830.370
199.143, 843.255
199.625, 856.623
200.107, 870.855
200.589, 885.186
201.071, 898.052
201.553, 909.004
202.035, 922.213
202.517, 939.937
202.999, 962.089
203.482, 981.752
203.964, 997.162
204.446, 1012.982
204.928, 1036.033
205.410, 1066.997
205.892, 1102.036
206.374, 1140.524
206.857, 1183.081
207.339, 1223.261
207.821, 1261.244
208.303, 1296.435
208.785, 1327.490
209.267, 1353.789
209.749, 1378.235
210.231, 1401.536
210.713, 1423.532
211.195, 1447.351
211.678, 1475.518
212.160, 1503.871
212.642, 1522.531
213.124, 1529.356
213.606, 1532.797
214.088, 1536.809
214.570, 1542.677
215.052, 1544.346
215.535, 1539.609
216.017, 1531.789
216.499, 1529.075
216.981, 1531.974
217.463, 1538.605
217.945, 1549.012
218.427, 1564.886
218.909, 1577.457
219.391, 1583.628
219.874, 1586.728
220.356, 1599.080
220.838, 1627.980
221.320, 1653.133
221.802, 1663.716
222.284, 1658.221
222.766, 1642.001
223.248, 1613.191
223.731, 1574.051
224.213, 1533.530
224.695, 1488.909
225.177, 1446.810
225.659, 1411.528
226.141, 1387.790
226.623, 1360.457
227.105, 1327.753
227.587, 1290.669
228.070, 1253.450
228.552, 1218.658
229.034, 1180.450
229.516, 1134.597
229.998, 1076.399
230.480, 1020.847
230.962, 970.977
231.444, 925.462
231.926, 873.780
232.409, 811.466
232.891, 749.291
233.373, 694.326
233.855, 650.895
234.337, 606.403
234.819, 558.969
235.301, 508.748
235.783, 460.244
236.266, 413.249
236.748, 368.299
237.230, 325.908
237.712, 285.705
238.194, 247.988
238.676, 213.696
239.158, 182.401
239.640, 150.538
240.122, 114.522
240.605, 82.176
241.087, 60.173
241.569, 53.908
242.051, 47.241
242.533, 38.867
243.015, 28.682
243.497, 14.930
243.980, 5.511
244.462, 26.029
244.944, 41.739
245.426, 52.578
245.908, 58.465
246.390, 56.212
246.872, 46.977
247.354, 49.052
247.836, 72.785
248.318, 95.791
248.801, 98.000
249.283, 66.468
249.765, 41.465
250.247, 31.388
250.729, 35.117
251.211, 31.609
251.693, 15.643
252.176, 1.112
252.658, 8.461
253.140, 1.700
253.622, 3.743
254.104, 5.954
254.586, 5.177
255.068, 1.112
255.550, 5.655
256.032, 17.450
256.514, 38.924
256.997, 79.388
257.479, 104.502
257.961, 103.727
258.443, 80.409
258.925, 74.734
259.407, 93.752
259.889, 118.824
260.371, 133.671
260.854, 131.890
261.336, 136.055
261.818, 153.549
262.300, 181.912
262.782, 194.176
263.264, 181.502
263.746, 165.873
264.228, 166.570
264.711, 188.644
265.193, 209.387
265.675, 227.165
266.157, 242.020
266.639, 250.907
267.121, 250.254
267.603, 248.915
268.085, 255.102
268.567, 271.347
269.050, 286.056
269.532, 296.214
270.014, 303.237
270.496, 316.452
270.978, 338.420
271.460, 359.806
271.942, 373.265
272.424, 377.551
272.906, 380.050
273.389, 380.861
273.871, 380.958
274.353, 385.006
274.835, 393.749
275.317, 403.837
275.799, 413.501
276.281, 422.844
276.763, 430.114
277.246, 434.767
277.728, 437.240
278.210, 438.538
278.692, 438.140
279.174, 438.552
279.656, 442.288
280.138, 449.478
280.620, 456.004
281.103, 462.899
281.585, 467.378
282.067, 458.977
282.549, 435.694
283.031, 413.498
283.513, 404.640
283.995, 408.429
284.477, 410.894
284.959, 411.112
285.441, 408.258
285.924, 398.904
286.406, 382.763
286.888, 366.760
287.370, 358.260
287.852, 355.439
288.334, 344.295
288.816, 321.267
289.298, 293.143
289.781, 270.016
290.263, 251.885
290.745, 238.743
291.227, 236.098
291.709, 239.722
292.191, 230.958
292.673, 205.431
293.155, 174.476
293.638, 153.598
294.120, 142.335
294.602, 136.037
295.084, 134.450
295.566, 135.916
296.048, 135.734
296.530, 133.227
297.012, 130.720
297.494, 131.915
297.977, 135.999
298.459, 139.354
298.941, 138.070
299.423, 135.441
299.905, 137.487
300.387, 144.922
300.869, 154.946
301.351, 168.269
301.833, 182.392
302.316, 190.224
302.798, 183.252
303.280, 170.554
303.762, 163.794
304.244, 164.037
304.726, 166.943
305.208, 168.924
305.690, 168.804
306.173, 166.652
306.655, 163.435
307.137, 161.131
307.619, 159.917
308.101, 158.982
308.583, 156.042
309.065, 154.360
309.547, 149.983
310.030, 136.591
310.512, 97.626
310.994, 58.997
311.476, 41.398
311.958, 43.265
312.440, 44.721
312.922, 32.694
313.404, 15.769
313.886, 2.593
314.369, 2.229
314.851, 0.069
315.333, 12.770
315.815, 34.508
316.297, 55.371
316.779, 72.991
317.261, 87.151
317.743, 97.718
318.225, 102.699
318.708, 106.351
319.190, 111.920
319.672, 117.684
320.154, 117.792
320.636, 108.727
321.118, 94.761
321.600, 77.528
322.082, 52.192
322.565, 31.756
323.047, 23.524
323.529, 22.187
324.011, 15.524
324.493, 1.865
324.975, 21.919
325.457, 41.118
325.939, 56.441
326.422, 76.649
326.904, 106.083
327.386, 140.161
327.868, 170.939
328.350, 193.105
328.832, 217.383
329.314, 245.604
329.796, 276.366
330.278, 316.304
330.760, 367.424
331.243, 426.160
331.725, 489.199
332.207, 559.983
332.689, 630.130
333.171, 696.362
333.653, 758.522
334.135, 824.595
334.617, 896.938
335.100, 970.007
335.582, 1037.058
336.064, 1095.635
336.546, 1154.443
337.028, 1216.133
337.510, 1279.504
337.992, 1339.898
338.474, 1399.429
338.957, 1451.703
339.439, 1487.758
339.921, 1503.722
340.403, 1529.833
340.885, 1573.734
341.367, 1628.376
341.849, 1670.597
342.331, 1699.923
342.813, 1721.778
343.296, 1739.793
343.778, 1753.844
344.260, 1760.642
344.742, 1757.654
345.224, 1751.458
345.706, 1756.768
346.188, 1773.294
346.670, 1785.769
347.152, 1782.438
347.635, 1767.830
348.117, 1757.639
348.599, 1752.961
349.081, 1751.706
349.563, 1752.839
350.045, 1755.521
350.527, 1756.889
351.009, 1756.128
351.491, 1752.707
351.974, 1743.251
352.456, 1727.141
352.938, 1714.073
353.420, 1717.586
353.902, 1729.769
354.384, 1736.008
354.866, 1723.611
355.349, 1708.034
355.831, 1703.730
356.313, 1710.063
356.795, 1720.423
357.277, 1734.075
357.759, 1748.417
358.241, 1759.775
358.723, 1761.181
359.205, 1767.359
359.688, 1792.899
360.170, 1831.765
360.652, 1863.136
361.134, 1859.866
361.616, 1857.630
362.098, 1882.688
362.580, 1955.091
363.062, 2022.906
363.544, 2067.718
364.027, 2097.550
364.509, 2127.846
364.991, 2151.791
365.473, 2185.858
365.955, 2238.055
366.437, 2313.767
366.919, 2391.076
367.401, 2468.129
367.884, 2544.930
368.366, 2621.061
368.848, 2697.434
369.330, 2772.043
369.812, 2843.670
370.294, 2911.749
370.776, 2988.006
371.258, 3083.766
371.741, 3175.087
372.223, 3240.746
372.705, 3262.938
373.187, 3295.334
373.669, 3350.895
374.151, 3422.623
374.633, 3470.995
375.115, 3492.227
375.597, 3499.256
376.079, 3499.476
376.562, 3493.049
377.044, 3478.701
377.526, 3455.703
378.008, 3425.735
378.490, 3394.658
378.972, 3363.719
379.454, 3322.292
379.936, 3262.428
380.419, 3186.054
380.901, 3105.469
381.383, 3019.858
381.865, 2935.495
382.347, 2865.354
382.829, 2806.333
383.311, 2742.679
383.793, 2664.506
384.276, 2579.635
384.758, 2504.889
385.240, 2440.389
385.722, 2374.054
386.204, 2284.727
386.686, 2186.338
387.168, 2108.783
387.650, 2065.278
388.132, 2034.713
388.615, 2000.569
389.097, 1962.000
389.579, 1917.364
390.061, 1857.842
390.543, 1795.679
391.025, 1742.014
391.507, 1699.225
391.989, 1663.626
392.471, 1638.679
392.954, 1619.004
393.436, 1595.668
393.918, 1569.127
394.400, 1535.286
394.882, 1488.578
395.364, 1427.106
395.846, 1371.540
396.328, 1328.432
396.810, 1292.501
397.293, 1258.414
397.775, 1226.257
398.257, 1194.877
398.739, 1165.726
399.221, 1138.519
399.703, 1105.766
400.185, 1062.076
400.668, 1017.372
401.150, 976.055
401.632, 932.317
402.114, 903.634
402.596, 898.858
403.078, 906.745
403.560, 898.604
404.042, 868.846
404.524, 835.468
405.007, 804.718
405.489, 776.842
405.971, 750.928
406.453, 727.463
406.935, 704.252
407.417, 677.050
407.899, 645.635
408.381, 619.605
408.863, 603.381
409.346, 594.134
409.828, 582.684
410.310, 568.907
410.792, 553.991
411.274, 542.881
411.756, 532.149
412.238, 507.015
412.720, 456.803
413.203, 406.805
413.685, 395.966
414.167, 416.117
414.649, 434.223
415.131, 428.987
415.613, 411.729
416.095, 393.839
416.577, 376.130
417.060, 363.453
417.542, 360.600
418.024, 363.565
418.506, 366.615
418.988, 369.704
419.470, 370.302
419.952, 364.716
420.434, 354.051
420.916, 349.594
421.398, 356.270
421.881, 368.895
422.363, 384.363
422.845, 406.506
423.327, 426.231
423.809, 440.850
424.291, 452.056
424.773, 464.957
425.255, 480.520
425.738, 497.122
426.220, 514.878
426.702, 534.734
427.184, 551.999
427.666, 565.092
428.148, 577.264
428.630, 593.172
429.112, 615.017
429.595, 633.658
430.077, 644.919
430.559, 650.765
431.041, 665.518
431.523, 691.402
432.005, 717.901
432.487, 738.807
432.969, 754.007
433.451, 759.776
433.934, 753.156
434.416, 742.151
434.898, 740.232
435.380, 746.577
435.862, 754.792
436.344, 765.038
436.826, 774.094
437.308, 775.185
437.790, 767.877
438.273, 756.406
438.755, 739.661
439.237, 722.263
439.719, 712.304
440.201, 719.020
440.683, 727.226
441.165, 724.808
441.647, 713.846
442.129, 703.695
442.612, 702.039
443.094, 700.709
443.576, 693.625
444.058, 677.700
444.540, 661.621
445.022, 648.635
445.504, 636.808
445.987, 623.208
446.469, 607.896
446.951, 590.092
447.433, 569.149
447.915, 545.132
448.397, 519.761
448.879, 490.815
449.361, 462.846
449.843, 440.199
450.326, 425.816
450.808, 408.893
451.290, 388.642
451.772, 365.321
452.254, 339.750
452.736, 312.194
453.218, 282.300
453.700, 246.029
454.182, 204.480
454.665, 177.730
455.147, 168.826
455.629, 164.194
456.111, 147.286
456.593, 120.610
457.075, 95.282
457.557, 75.314
458.039, 58.421
458.522, 41.000
459.004, 23.383
459.486, 9.556
459.968, 2.823
460.450, 1.001
460.932, 3.264
461.414, 11.545
461.896, 16.531
462.379, 7.588
462.861, 7.790
463.343, 17.456
463.825, 14.513
464.307, 7.478
464.789, 1.363
465.271, 11.877
465.753, 20.937
466.235, 31.077
466.717, 37.480
467.200, 36.854
467.682, 19.404
468.164, 7.878
468.646, 3.750
469.128, 5.462
469.610, 10.735
470.092, 24.704
470.574, 32.279
471.057, 25.170
471.539, 2.359
472.021, 8.767
472.503, 4.335
472.985, 1.714
473.467, 8.039
473.949, 33.412
474.431, 52.878
474.914, 61.482
475.396, 61.985
475.878, 55.975
476.360, 44.490
476.842, 37.013
477.324, 44.809
477.806, 58.796
478.288, 62.282
478.770, 53.253
479.253, 41.355
479.735, 33.171
480.217, 27.168
480.699, 21.536
481.181, 16.346
481.663, 9.955
482.145, 4.186
482.627, 1.858
483.109, 14.682
483.592, 48.227
484.074, 81.345
484.556, 101.065
485.038, 98.221
485.520, 99.695
486.002, 110.059
486.484, 124.448
486.966, 138.442
487.448, 159.652
487.931, 168.579
488.413, 155.328
488.895, 123.117
489.377, 109.297
489.859, 120.356
490.341, 133.745
490.823, 134.144
491.306, 121.600
491.788, 108.424
492.270, 94.818
492.752, 83.107
493.234, 77.562
493.716, 77.839
494.198, 80.406
494.680, 89.107
495.162, 95.757
495.645, 83.077
496.127, 52.876
496.609, 24.656
497.091, 11.557
497.573, 7.715
498.055, 7.025
498.537, 9.606
499.019, 12.310
499.501, 12.426
499.984, 11.599
500.466, 12.455
500.948, 19.883
501.430, 24.607
501.912, 21.821
502.394, 11.616
502.876, 6.559
503.358, 9.598
503.841, 15.252
504.323, 20.245
504.805, 21.620
505.287, 27.749
505.769, 43.641
506.251, 61.995
506.733, 64.600
507.215, 45.446
507.698, 36.304
508.180, 52.674
508.662, 88.692
509.144, 112.444
509.626, 123.134
510.108, 128.003
510.590, 131.898
511.072, 135.327
511.554, 138.887
512.036, 142.275
512.519, 147.489
513.001, 157.216
513.483, 169.776
513.965, 182.479
514.447, 194.153
514.929, 207.541
515.411, 225.109
515.893, 245.505
516.375, 262.239
516.858, 268.649
517.340, 273.043
517.822, 281.492
518.304, 299.266
518.786, 314.637
519.268, 322.334
519.750, 327.367
520.232, 339.102
520.715, 365.315
521.197, 386.522
521.679, 397.678
522.161, 399.350
522.643, 397.590
523.125, 389.913
523.607, 383.048
524.089, 384.988
524.571, 395.480
525.054, 399.793
525.536, 395.796
526.018, 387.985
526.500, 382.714
526.982, 378.429
527.464, 370.702
527.946, 356.219
528.429, 339.318
528.911, 325.387
529.393, 313.572
529.875, 299.842
530.357, 279.274
530.839, 258.067
531.321, 242.439
531.803, 235.643
532.286, 223.797
532.768, 195.062
533.250, 162.020
533.732, 141.025
534.214, 147.689
534.696, 150.780
535.178, 145.012
535.660, 131.049
536.142, 113.696
536.625, 90.066
537.107, 69.551
537.589, 57.808
538.071, 55.993
538.553, 49.731
539.035, 37.003
539.517, 25.437
539.999, 26.768
540.481, 38.910
540.964, 45.965
541.446, 42.406
541.928, 33.943
542.410, 27.765
542.892, 23.802
543.374, 21.866
543.856, 25.385
544.338, 28.604
544.820, 24.256
545.303, 11.440
545.785, 1.319
546.267, 0.348
546.749, 2.676
547.231, 7.128
547.713, 14.757
548.195, 20.752
548.677, 23.707
549.159, 24.689
549.642, 26.082
550.124, 28.849
550.606, 30.412
551.088, 28.967
551.570, 24.788
552.052, 26.422
552.534, 35.886
553.016, 45.068
553.499, 46.499
553.981, 41.014
554.463, 38.063
554.945, 39.077
555.427, 40.152
555.909, 35.057
556.391, 25.830
556.873, 18.097
557.356, 13.354
557.838, 11.658
558.320, 16.818
558.802, 26.707
559.284, 30.883
559.766, 17.769
560.248, 1.481
560.730, 9.150
561.213, 11.788
561.695, 11.017
562.177, 3.045
562.659, 5.413
563.141, 7.868
563.623, 0.533
564.105, 6.944
564.587, 9.679
565.069, 9.826
565.552, 10.638
566.034, 12.444
566.516, 12.843
566.998, 9.771
567.480, 4.194
567.962, 1.721
568.444, 2.472
568.926, 4.684
569.408, 8.422
569.891, 12.247
570.373, 11.525
570.855, 3.111
571.337, 1.957
571.819, 10.543
572.301, 31.844
572.783, 47.177
573.265, 47.521
573.747, 44.204
574.230, 40.009
574.712, 35.438
575.194, 33.214
575.676, 37.099
576.158, 40.383
576.640, 39.431
577.122, 32.057
577.604, 30.606
578.086, 37.335
578.569, 46.714
579.051, 54.715
579.533, 61.764
580.015, 61.094
580.497, 48.892
580.979, 32.995
581.461, 28.549
581.943, 34.151
582.426, 41.273
582.908, 49.038
583.390, 54.302
583.872, 50.318
584.354, 38.175
584.836, 28.167
585.318, 29.786
585.800, 34.059
586.282, 33.128
586.765, 23.058
587.247, 15.602
587.729, 15.416
588.211, 18.807
588.693, 21.440
589.175, 24.457
589.657, 24.770
590.140, 22.109
590.622, 16.469
591.104, 6.666
591.586, 9.059
592.068, 22.278
592.550, 26.645
593.032, 24.574
593.514, 27.162
593.996, 33.902
594.479, 55.256
594.961, 124.375
595.443, 209.703
595.925, 243.896
596.407, 203.134
596.889, 153.132
597.371, 140.070
597.853, 151.340
598.335, 167.934
598.818, 182.073
599.300, 200.780
599.782, 228.085
600.264, 262.545
600.746, 297.108
601.228, 328.017
601.710, 363.937
602.192, 409.440
602.674, 465.656
603.157, 511.611
603.639, 542.924
604.121, 574.428
604.603, 620.640
605.085, 680.225
605.567, 738.534
606.049, 792.596
606.531, 846.729
607.013, 901.010
607.496, 959.155
607.978, 1029.984
608.460, 1125.600
608.942, 1225.964
609.424, 1316.137
609.906, 1398.155
610.388, 1482.007
610.870, 1570.707
611.353, 1661.868
611.835, 1751.821
612.317, 1841.083
612.799, 1933.542
613.281, 2027.320
613.763, 2125.959
614.245, 2234.136
614.727, 2359.571
615.209, 2464.387
615.692, 2542.556
616.174, 2606.517
616.656, 2680.519
617.138, 2762.109
617.620, 2824.434
618.102, 2858.451
618.584, 2869.973
619.067, 2862.156
619.549, 2838.038
620.031, 2809.094
620.513, 2787.426
620.995, 2758.463
621.477, 2712.385
621.959, 2648.590
622.441, 2566.965
622.923, 2448.332
623.406, 2325.304
623.888, 2218.984
624.370, 2140.629
624.852, 2057.902
625.334, 1971.344
625.816, 1880.021
626.298, 1779.576
626.780, 1666.008
627.263, 1563.932
627.745, 1479.338
628.227, 1408.455
628.709, 1346.150
629.191, 1291.649
629.673, 1240.395
630.155, 1189.109
630.637, 1139.850
631.119, 1096.627
631.602, 1059.277
632.084, 1026.067
632.566, 996.121
633.048, 969.802
633.530, 945.732
634.012, 922.108
634.494, 908.077
634.976, 910.660
635.458, 920.757
635.941, 930.683
636.423, 939.390
636.905, 948.780
637.387, 955.340
637.869, 966.795
638.351, 1001.105
638.833, 1059.129
639.315, 1114.769
639.797, 1158.009
640.280, 1194.996
640.762, 1235.026
641.244, 1279.648
641.726, 1335.888
642.208, 1415.579
642.690, 1504.278
643.172, 1590.352
643.654, 1673.285
644.137, 1759.593
644.619, 1856.642
645.101, 1955.923
645.583, 2052.968
646.065, 2145.618
646.547, 2237.608
647.029, 2322.950
647.511, 2411.235
647.994, 2510.065
648.476, 2617.490
648.958, 2746.618
649.440, 2905.489
649.922, 3076.784
650.404, 3219.602
650.886, 3336.259
651.368, 3455.583
651.851, 3585.000
652.333, 3725.866
652.815, 3883.965
653.297, 4057.131
653.779, 4237.121
654.261, 4423.430
654.743, 4612.302
655.225, 4800.085
655.707, 4985.132
656.190, 5177.822
656.672, 5384.439
657.154, 5597.739
657.636, 5817.570
658.118, 6056.481
658.600, 6264.615
659.082, 6437.196
659.564, 6586.970
660.046, 6734.302
660.529, 6876.617
661.011, 6987.019
661.493, 7066.108
661.975, 7097.308
662.457, 7053.498
662.939, 6942.506
663.421, 6785.021
663.903, 6573.622
664.385, 6334.551
664.868, 6080.105
665.350, 5811.248
665.832, 5529.372
666.314, 5231.737
666.796, 4926.659
667.278, 4610.961
667.760, 4277.915
668.242, 3984.448
668.724, 3740.309
669.207, 3521.091
669.689, 3306.654
670.171, 3099.230
670.653, 2915.262
671.135, 2757.710
671.617, 2613.294
672.099, 2463.857
672.581, 2314.535
673.064, 2176.078
673.546, 2055.729
674.028, 1942.869
674.510, 1827.782
674.992, 1714.435
675.474, 1612.139
675.956, 1530.052
676.438, 1451.146
676.920, 1372.277
677.403, 1293.117
677.885, 1214.545
678.367, 1133.488
678.849, 1060.231
679.331, 1001.581
679.813, 955.691
680.295, 910.093
680.778, 864.236
681.260, 823.380
681.742, 793.243
682.224, 771.224
682.706, 754.398
683.188, 742.236
683.670, 732.641
684.152, 721.867
684.634, 713.743
685.117, 712.364
685.599, 721.196
686.081, 732.839
686.563, 751.078
687.045, 769.803
687.527, 780.025
688.009, 775.426
688.491, 779.166
688.973, 796.594
689.456, 822.696
689.938, 845.626
690.420, 865.941
690.902, 890.003
691.384, 925.312
691.866, 962.580
692.348, 987.541
692.830, 1002.000
693.312, 1014.094
693.795, 1020.961
694.277, 1032.627
694.759, 1059.016
695.241, 1101.731
695.723, 1135.531
696.205, 1151.857
696.687, 1163.529
697.169, 1176.912
697.652, 1192.534
698.134, 1204.025
698.616, 1209.832
699.098, 1215.316
699.580, 1231.293
700.062, 1253.722
700.544, 1257.622
701.026, 1235.844
701.508, 1208.863
701.991, 1196.831
702.473, 1194.047
702.955, 1191.160
703.437, 1189.123
703.919, 1181.692
704.401, 1163.180
704.883, 1137.833
705.365, 1115.649
705.847, 1104.249
706.330, 1084.461
706.812, 1048.054
707.294, 1001.067
707.776, 969.988
708.258, 956.900
708.740, 943.550
709.222, 922.566
709.705, 894.471
710.187, 855.861
710.669, 808.644
711.151, 769.550
711.633, 761.932
712.115, 758.624
712.597, 731.281
713.079, 674.575
713.561, 630.442
714.044, 622.398
714.526, 622.367
715.008, 611.256
715.490, 581.719
715.972, 560.309
716.454, 549.066
716.936, 543.358
717.418, 541.915
717.901, 543.777
718.383, 533.396
718.865, 503.780
719.347, 473.811
719.829, 468.465
720.311, 479.426
720.793, 489.999
721.275, 498.723
721.757, 497.879
722.240, 472.848
722.722, 436.619
723.204, 415.926
723.686, 432.923
724.168, 444.896
724.650, 441.472
725.132, 426.902
725.614, 419.389
726.096, 419.335
726.579, 417.068
727.061, 406.701
727.543, 393.349
728.025, 390.525
728.507, 395.403
728.989, 395.141
729.471, 379.707
729.953, 358.888
730.435, 339.135
730.918, 321.363
731.400, 308.339
731.882, 307.593
732.364, 305.808
732.846, 295.231
733.328, 273.217
733.810, 255.207
734.292, 240.190
734.775, 231.493
735.257, 237.597
735.739, 254.825
736.221, 258.283
736.703, 244.514
737.185, 224.655
737.667, 208.234
738.149, 193.142
738.631, 175.780
739.114, 152.438
739.596, 132.831
740.078, 120.332
740.560, 113.787
741.042, 112.041
741.524, 118.007
742.006, 123.525
742.489, 129.321
742.971, 133.167
743.453, 129.369
743.935, 117.976
744.417, 105.855
744.899, 92.720
745.381, 83.169
745.863, 89.167
746.345, 105.212
746.828, 115.014
747.310, 104.235
747.792, 91.335
748.274, 86.588
748.756, 88.320
749.238, 87.649
749.720, 83.222
750.202, 76.626
750.684, 67.261
751.167, 55.883
751.649, 48.766
752.131, 46.343
752.613, 45.869
753.095, 46.438
753.577, 47.764
754.059, 46.207
754.541, 42.553
755.023, 48.852
755.506, 54.514
755.988, 64.792
756.470, 73.765
756.952, 81.503
757.434, 84.710
757.916, 93.441
758.398, 99.771
758.880, 105.876
759.362, 115.015
759.845, 120.325
760.327, 135.798
760.809, 158.122
761.291, 166.396
761.773, 164.537
762.255, 163.627
762.737, 165.654
763.219, 166.273
763.702, 159.650
764.184, 150.730
764.666, 144.940
765.148, 144.699
765.630, 145.814
766.112, 154.035
766.594, 159.244
767.076, 148.819
767.558, 116.762
768.041, 91.948
768.523, 78.309
769.005, 71.948
769.487, 71.746
769.969, 74.571
770.451, 67.176
770.933, 42.006
771.416, 12.149
771.898, 14.646
772.380, 37.821
772.862, 56.441
773.344, 62.527
773.826, 73.055
774.308, 92.580
774.790, 118.485
775.272, 146.823
775.755, 179.933
776.237, 205.116
776.719, 215.983
777.201, 219.760
777.683, 236.032
778.165, 261.650
778.647, 281.036
779.129, 283.914
779.612, 279.279
780.094, 268.872
780.576, 256.242
781.058, 254.441
781.540, 283.699
782.022, 307.154
782.504, 314.579
782.986, 307.205
783.468, 290.529
783.951, 262.255
784.433, 235.954
784.915, 222.921
785.397, 215.484
785.879, 186.683
786.361, 138.326
786.843, 88.883
787.325, 50.765
787.807, 14.616
788.290, 22.817
788.772, 63.250
789.254, 116.562
789.736, 196.627
790.218, 280.901
790.700, 357.074
791.182, 425.275
791.664, 508.257
792.146, 607.648
792.629, 719.372
793.111, 842.186
793.593, 974.868
794.075, 1101.934
794.557, 1224.674
795.039, 1367.419
795.521, 1552.752
796.003, 1763.355
796.485, 1987.642
796.968, 2224.633
797.450, 2471.492
797.932, 2722.223
798.414, 2989.062
798.896, 3276.279
799.378, 3582.763
799.860, 3909.261
800.343, 4254.294
800.825, 4627.413
801.307, 5040.976
801.789, 5489.849
802.271, 5977.472
802.753, 6503.709
803.235, 7043.476
803.717, 7563.979
804.199, 8104.429
804.682, 8694.487
805.164, 9340.842
805.646, 10035.849
806.128, 10797.710
806.610, 11583.133
807.092, 12351.145
807.574, 13102.087
808.056, 13883.435
808.539, 14690.943
809.021, 15530.896
809.503, 16417.279
809.985, 17334.742
810.467, 18266.936
810.949, 19219.178
811.431, 20156.191
811.913, 21041.773
812.395, 21907.486
812.878, 22779.932
813.360, 23665.996
813.842, 24544.477
814.324, 25422.541
814.806, 26281.172
815.288, 27110.795
815.770, 27916.211
816.252, 28697.402
816.734, 29460.945
817.217, 30204.951
817.699, 30933.014
818.181, 31648.717
818.663, 32357.250
819.145, 33071.172
819.627, 33759.281
820.109, 34441.242
820.591, 35093.445
821.073, 35683.652
821.556, 36207.195
822.038, 36721.266
822.520, 37238.648
823.002, 37703.281
823.484, 38042.230
823.966, 38269.676
824.448, 38447.168
824.930, 38597.375
825.413, 38645.531
825.895, 38546.898
826.377, 38315.656
826.859, 37961.051
827.341, 37416.125
827.823, 36860.512
828.305, 36329.633
828.787, 35749.539
829.269, 35026.742
829.752, 34167.934
830.234, 33224.992
830.716, 32196.773
831.198, 31150.994
831.680, 30149.012
832.162, 29185.078
832.644, 28233.264
833.127, 27277.768
833.609, 26382.223
834.091, 25587.418
834.573, 24845.914
835.055, 24105.676
835.537, 23323.951
836.019, 22640.236
836.501, 22074.350
836.983, 21576.139
837.466, 21093.771
837.948, 20624.293
838.430, 20147.381
838.912, 19645.334
839.394, 19193.125
839.876, 18908.023
840.358, 18671.396
840.840, 18352.238
841.322, 17871.012
841.805, 17417.572
842.287, 17012.418
842.769, 16628.541
843.251, 16248.039
843.733, 15873.630
844.215, 15452.847
844.697, 14977.769
845.179, 14473.963
845.661, 13955.899
846.144, 13432.261
846.626, 12906.348
847.108, 12377.093
847.590, 11854.731
848.072, 11362.348
848.554, 10865.660
849.036, 10331.257
849.518, 9733.337
850.000, 9172.168
850.483, 8650.984
850.965, 8170.497
851.447, 7754.366
851.929, 7385.234
852.411, 7001.268
852.893, 6593.500
853.375, 6216.902
853.857, 5918.625
854.340, 5675.416
854.822, 5473.221
855.304, 5315.083
855.786, 5181.505
856.268, 5069.480
856.750, 4980.010
857.232, 4920.218
857.714, 4890.165
858.196, 4852.249
858.679, 4805.413
859.161, 4759.965
859.643, 4723.756
860.125, 4694.714
860.607, 4683.603
861.089, 4693.112
861.571, 4657.945
862.054, 4529.701
862.536, 4370.222
863.018, 4215.297
863.500, 4065.155
863.982, 3898.993
864.464, 3714.810
864.946, 3517.472
865.428, 3309.297
865.910, 3091.270
866.393, 2855.709
866.875, 2605.644
867.357, 2364.504
867.839, 2149.081
868.321, 1941.320
868.803, 1724.875
869.285, 1499.667
869.767, 1301.454
870.250, 1138.447
870.732, 985.817
871.214, 829.501
871.696, 677.218
872.178, 560.700
872.660, 479.285
873.142, 412.486
873.624, 350.705
874.106, 296.781
874.589, 251.829
875.071, 216.166
875.553, 190.297
876.035, 172.745
876.517, 167.926
876.999, 181.861
877.481, 207.491
877.963, 215.573
878.445, 205.807
878.928, 209.786
879.410, 239.408
879.892, 291.204
880.374, 379.524
880.856, 485.665
881.338, 563.801
881.820, 545.743
882.302, 557.456
882.784, 653.544
883.267, 795.074
883.749, 908.473
884.231, 988.430
884.713, 1065.598
885.195, 1144.057
885.677, 1229.031
886.159, 1326.797
886.641, 1437.459
887.123, 1562.034
887.606, 1707.360
888.088, 1856.272
888.570, 2006.326
889.052, 2156.074
889.534, 2300.648
890.016, 2421.186
890.498, 2587.383
890.981, 2812.846
891.463, 3066.605
891.945, 3297.840
892.427, 3520.691
892.909, 3776.435
893.391, 4073.649
893.873, 4382.047
894.355, 4658.559
894.837, 4949.289
895.320, 5304.085
895.802, 5755.814
896.284, 6184.833
896.766, 6564.646
897.248, 6969.980
897.730, 7499.551
898.212, 8120.538
898.694, 8643.678
899.177, 9053.233
899.659, 9464.649
900.141, 9958.797
900.623, 10491.050
901.105, 11024.604
901.587, 11554.853
902.069, 12079.595
902.551, 12597.912
903.033, 13110.540
903.516, 13626.622
903.998, 14137.597
904.480, 14605.678
904.962, 15030.750
905.444, 15406.120
905.926, 15729.302
906.408, 15999.605
906.890, 16223.919
907.372, 16399.047
907.855, 16497.289
908.337, 16494.951
908.819, 16426.074
909.301, 16293.794
909.783, 16102.784
910.265, 15868.183
910.747, 15592.520
911.229, 15278.382
911.711, 14915.687
912.194, 14532.229
912.676, 14149.450
913.158, 13768.813
913.640, 13386.581
914.122, 12998.875
914.604, 12618.160
915.086, 12241.451
915.568, 11876.703
916.050, 11531.888
916.533, 11205.768
917.015, 10914.332
917.497, 10661.858
917.979, 10426.610
918.461, 10167.217
918.943, 9912.398
919.425, 9702.639
919.907, 9546.504
920.390, 9434.201
920.872, 9278.829
921.354, 9226.166
921.836, 9146.428
922.318, 9042.048
922.800, 8842.664
923.282, 8766.224
923.765, 8640.627
924.247, 8539.559
924.729, 8490.317
925.211, 8453.359
925.693, 8422.194
926.175, 8398.582
926.657, 8393.430
927.139, 8384.798
927.621, 8356.131
928.104, 8313.666
928.586, 8309.970
929.068, 8350.284
929.550, 8385.761
930.032, 8389.948
930.514, 8382.471
930.996, 8391.913
931.478, 8415.092
931.960, 8442.801
932.443, 8466.624
932.925, 8500.796
933.407, 8562.081
933.889, 8630.728
934.371, 8674.426
934.853, 8692.939
935.335, 8686.653
935.817, 8651.735
936.299, 8603.136
936.782, 8560.371
937.264, 8517.524
937.746, 8467.999
938.228, 8421.588
938.710, 8336.621
939.192, 8164.148
939.674, 7973.035
940.156, 7822.512
940.638, 7728.625
941.121, 7569.353
941.603, 7339.826
942.085, 7087.183
942.567, 6848.042
943.049, 6615.942
943.531, 6388.272
944.013, 6160.453
944.495, 5915.792
944.978, 5630.020
945.460, 5340.764
945.942, 5059.611
946.424, 4786.208
946.906, 4542.056
947.388, 4329.411
947.870, 4108.390
948.352, 3861.559
948.834, 3600.201
949.317, 3328.597
949.799, 3056.079
950.281, 2804.313
950.763, 2595.963
951.245, 2389.953
951.727, 2170.830
952.209, 1954.875
952.692, 1765.086
953.174, 1601.826
953.656, 1440.139
954.138, 1274.266
954.620, 1117.359
955.102, 986.674
955.584, 872.166
956.066, 757.605
956.548, 635.360
957.031, 530.209
957.513, 454.489
957.995, 384.299
958.477, 301.085
958.959, 205.315
959.441, 136.458
959.923, 94.544
960.405, 64.650
960.888, 52.967
961.370, 35.885
961.852, 21.319
962.334, 109.798
962.816, 168.531
963.298, 162.235
963.780, 161.873
964.262, 187.834
964.744, 227.305
965.227, 249.053
965.709, 254.906
966.191, 255.067
966.673, 249.366
967.155, 246.272
967.637, 260.719
968.119, 278.615
968.601, 280.267
969.083, 245.688
969.566, 227.733
970.048, 233.972
970.530, 242.603
971.012, 226.675
971.494, 193.913
971.976, 172.008
972.458, 163.227
972.940, 158.398
973.422, 161.994
973.905, 158.787
974.387, 132.914
974.869, 85.013
975.351, 48.156
975.833, 25.871
976.315, 2.795
976.797, 29.100
977.279, 65.063
977.761, 88.171
978.244, 105.773
978.726, 139.764
979.208, 222.889
979.690, 297.443
980.172, 326.203
980.654, 341.369
981.136, 391.641
981.619, 484.144
982.101, 571.824
982.583, 649.496
983.065, 721.489
983.547, 787.124
984.029, 852.723
984.511, 925.584
984.993, 1006.735
985.475, 1102.012
985.958, 1218.159
986.440, 1345.807
986.922, 1484.040
987.404, 1631.774
987.886, 1773.447
988.368, 1909.433
988.850, 2038.733
989.332, 2158.281
989.815, 2273.102
990.297, 2379.086
990.779, 2483.498
991.261, 2607.388
991.743, 2771.071
992.225, 2929.728
992.707, 3075.658
993.189, 3216.327
993.671, 3370.422
994.154, 3534.819
994.636, 3695.179
995.118, 3848.726
995.600, 4000.021
996.082, 4149.803
996.564, 4302.442
997.046, 4463.181
997.528, 4634.735
998.010, 4806.217
998.493, 4979.503
998.975, 5141.193
999.457, 5268.979
999.939, 5382.861
1000.421, 5530.708
1000.903, 5708.914
1001.385, 5895.080
1001.867, 6095.292
1002.349, 6284.343
1002.832, 6445.191
1003.314, 6592.785
1003.796, 6767.657
1004.278, 6971.045
1004.760, 7148.769
1005.242, 7283.278
1005.724, 7405.678
1006.206, 7541.220
1006.689, 7690.664
1007.171, 7858.398
1007.653, 8062.084
1008.135, 8227.462
1008.617, 8340.074
1009.099, 8428.337
1009.581, 8510.674
1010.063, 8584.277
1010.545, 8626.815
1011.028, 8638.697
1011.510, 8627.209
1011.992, 8556.047
1012.474, 8501.021
1012.956, 8578.837
1013.438, 8712.603
1013.920, 8650.859
1014.402, 8316.191
1014.885, 7992.845
1015.367, 7728.430
1015.849, 7496.804
1016.331, 7265.939
1016.813, 7030.904
1017.295, 6779.633
1017.777, 6509.461
1018.259, 6224.684
1018.741, 5907.509
1019.224, 5592.631
1019.706, 5281.083
1020.188, 4971.596
1020.670, 4784.814
1021.152, 4726.514
1021.634, 4656.673
1022.116, 4460.890
1022.598, 4230.635
1023.081, 4088.215
1023.563, 3988.903
1024.045, 3794.843
1024.527, 3406.719
1025.009, 3033.931
1025.491, 2688.810
1025.973, 2385.358
1026.455, 2154.156
1026.938, 1988.523
1027.420, 1847.506
1027.902, 1725.767
1028.384, 1607.706
1028.866, 1475.978
1029.348, 1355.092
1029.830, 1267.495
1030.312, 1213.352
1030.794, 1127.934
1031.276, 1006.343
1031.759, 891.518
1032.241, 806.549
1032.723, 744.181
1033.205, 700.166
1033.687, 666.990
1034.169, 629.519
1034.651, 575.098
1035.133, 528.111
1035.616, 495.245
1036.098, 465.124
1036.580, 418.867
1037.062, 362.055
1037.544, 326.564
1038.026, 316.524
1038.508, 312.701
1038.990, 304.091
1039.473, 294.042
1039.955, 286.286
1040.437, 280.540
1040.919, 267.973
1041.401, 245.898
1041.883, 228.666
1042.365, 223.969
1042.847, 224.391
1043.329, 219.117
1043.812, 209.313
1044.294, 196.743
1044.776, 176.441
1045.258, 163.114
1045.740, 161.718
1046.222, 164.733
1046.704, 165.626
1047.186, 164.559
1047.668, 167.598
1048.151, 174.770
1048.633, 175.339
1049.115, 150.627
1049.597, 125.900
1050.079, 122.124
1050.561, 136.838
1051.043, 146.276
1051.525, 149.620
1052.008, 149.080
1052.490, 143.274
1052.972, 138.123
1053.454, 147.235
1053.936, 162.269
1054.418, 166.955
1054.900, 154.001
1055.382, 141.351
1055.865, 131.738
1056.347, 126.042
1056.829, 127.254
1057.311, 134.068
1057.793, 128.385
1058.275, 111.343
1058.757, 96.265
1059.239, 87.917
1059.721, 87.419
1060.203, 106.074
1060.686, 131.111
1061.168, 130.875
1061.650, 93.351
1062.132, 72.694
1062.614, 79.336
1063.096, 89.720
1063.578, 70.529
1064.060, 39.333
1064.543, 21.711
1065.025, 20.988
1065.507, 30.800
1065.989, 66.854
1066.471, 90.944
1066.953, 86.097
1067.435, 60.709
1067.917, 39.990
1068.400, 23.980
1068.882, 14.468
1069.364, 15.662
1069.846, 16.946
1070.328, 7.684
1070.810, 2.746
1071.292, 2.312
1071.774, 12.720
1072.256, 22.609
1072.739, 26.695
1073.221, 29.676
1073.703, 37.503
1074.185, 44.819
1074.667, 42.841
1075.149, 33.488
1075.631, 27.339
1076.113, 33.333
1076.596, 31.137
1077.078, 12.179
1077.560, 8.943
1078.042, 2.421
1078.524, 22.504
1079.006, 36.548
1079.488, 33.389
1079.970, 26.218
1080.453, 19.264
1080.935, 13.028
1081.417, 8.079
1081.899, 4.257
1082.381, 1.749
1082.863, 9.963
1083.345, 12.711
1083.827, 5.783
1084.309, 7.147
1084.792, 30.163
1085.274, 54.611
1085.756, 64.192
1086.238, 48.491
1086.720, 38.146
1087.202, 33.273
1087.684, 35.215
1088.166, 51.739
1088.648, 73.089
1089.131, 80.317
1089.613, 74.139
1090.095, 66.176
1090.577, 56.652
1091.059, 50.600
1091.541, 49.335
1092.023, 53.315
1092.505, 64.472
1092.988, 77.662
1093.470, 88.223
1093.952, 95.365
1094.434, 103.368
1094.916, 120.793
1095.398, 134.621
1095.880, 132.239
1096.362, 114.531
1096.844, 111.872
1097.327, 125.300
1097.809, 137.598
1098.291, 136.865
1098.773, 135.546
1099.255, 153.573
1099.737, 179.101
1100.219, 191.866
1100.701, 182.160
1101.183, 170.509
1101.666, 153.022
1102.148, 141.413
1102.630, 150.177
1103.112, 171.044
1103.594, 189.563
1104.076, 204.784
1104.558, 211.666
1105.040, 198.302
1105.523, 185.656
1106.005, 179.700
1106.487, 178.467
1106.969, 179.021
1107.451, 180.212
1107.933, 179.630
1108.415, 177.522
1108.897, 171.205
1109.380, 150.734
1109.862, 132.240
1110.344, 127.333
1110.826, 134.907
1111.308, 145.913
1111.790, 160.821
1112.272, 166.642
1112.754, 155.222
1113.236, 138.481
1113.719, 126.113
1114.201, 117.347
1114.683, 111.583
1115.165, 111.471
1115.647, 105.469
1116.129, 91.135
1116.611, 78.529
1117.093, 77.040
1117.575, 81.165
1118.058, 82.197
1118.540, 80.727
1119.022, 78.873
1119.504, 73.091
1119.986, 72.979
1120.468, 83.418
1120.950, 95.419
1121.432, 94.867
1121.915, 85.305
1122.397, 80.072
1122.879, 80.927
1123.361, 84.520
1123.843, 95.622
1124.325, 101.683
1124.807, 92.619
1125.289, 76.274
1125.771, 80.935
1126.254, 104.598
1126.736, 123.547
1127.218, 131.821
1127.700, 134.786
1128.182, 129.536
1128.664, 125.051
1129.146, 133.418
1129.628, 156.270
1130.110, 163.123
1130.593, 152.326
1131.075, 143.600
1131.557, 146.496
1132.039, 156.867
1132.521, 179.425
1133.003, 203.299
1133.485, 208.679
1133.967, 179.361
1134.450, 162.612
1134.932, 161.469
1135.414, 162.400
1135.896, 154.362
1136.378, 142.997
1136.860, 135.735
1137.342, 132.942
1137.824, 135.448
1138.307, 154.536
1138.789, 162.933
1139.271, 154.610
1139.753, 138.319
1140.235, 122.962
1140.717, 109.651
1141.199, 102.448
1141.681, 102.234
1142.163, 100.797
1142.646, 93.441
1143.128, 84.918
1143.610, 76.544
1144.092, 68.429
1144.574, 60.237
1145.056, 52.887
1145.538, 51.811
1146.020, 61.806
1146.502, 66.388
1146.985, 44.932
1147.467, 23.786
1147.949, 28.184
1148.431, 55.425
1148.913, 40.275
1149.395, 14.739
1149.877, 48.524
1150.359, 13.811
1150.842, 27.261
1151.324, 22.081
1151.806, 4.595
1152.288, 18.491
1152.770, 14.813
1153.252, 13.017
1153.734, 13.371
1154.216, 14.002
1154.698, 14.652
1155.181, 13.838
1155.663, 8.161
1156.145, 0.138
1156.627, 4.570
1157.109, 5.099
1157.591, 0.038
1158.073, 12.851
1158.555, 24.106
1159.037, 22.624
1159.520, 14.155
1160.002, 3.063
1160.484, 9.117
1160.966, 10.048
1161.448, 12.292
1161.930, 24.390
1162.412, 15.847
1162.894, 0.276
1163.377, 0.727
1163.859, 10.110
1164.341, 14.912
1164.823, 12.333
1165.305, 10.603
1165.787, 13.407
1166.269, 15.083
1166.751, 13.874
1167.234, 9.778
1167.716, 0.861
1168.198, 10.941
1168.680, 20.382
1169.162, 26.597
1169.644, 28.435
1170.126, 22.266
1170.608, 14.791
1171.090, 8.680
1171.573, 4.346
1172.055, 5.024
1172.537, 10.059
1173.019, 16.339
1173.501, 21.413
1173.983, 28.464
1174.465, 44.413
1174.947, 58.453
1175.430, 58.062
1175.912, 44.058
1176.394, 42.180
1176.876, 51.960
1177.358, 58.626
1177.840, 45.140
1178.322, 34.884
1178.804, 43.682
1179.286, 61.686
1179.769, 74.539
1180.251, 82.126
1180.733, 91.186
1181.215, 102.556
1181.697, 107.144
1182.179, 87.569
1182.661, 68.453
1183.143, 70.053
1183.625, 86.069
1184.108, 97.682
1184.590, 104.969
1185.072, 106.301
1185.554, 100.668
1186.036, 93.781
1186.518, 91.274
1187.000, 89.422
1187.482, 81.114
1187.965, 68.264
1188.447, 75.141
1188.929, 104.353
1189.411, 124.822
1189.893, 124.663
1190.375, 120.598
1190.857, 133.120
1191.339, 149.560
1191.822, 155.402
1192.304, 148.736
1192.786, 138.332
1193.268, 122.449
1193.750, 115.897
1194.232, 132.600
1194.714, 150.151
1195.196, 131.588
1195.678, 100.953
1196.161, 96.664
1196.643, 134.587
1197.125, 152.871
1197.607, 148.536
1198.089, 140.633
1198.571, 139.863
1199.053, 143.363
1199.535, 148.043
1200.017, 154.173
1200.500, 162.766
1200.982, 179.058
1201.464, 184.437
1201.946, 177.175
1202.428, 165.701
1202.910, 154.604
1203.392, 145.217
1203.874, 138.257
1204.357, 134.555
1204.839, 137.125
1205.321, 149.952
1205.803, 160.063
1206.285, 166.565
1206.767, 169.574
1207.249, 166.499
1207.731, 159.540
1208.214, 156.242
1208.696, 155.748
1209.178, 159.517
1209.660, 171.535
1210.142, 176.512
1210.624, 170.866
1211.106, 161.654
1211.588, 155.039
1212.070, 150.940
1212.552, 149.793
1213.035, 151.491
1213.517, 153.606
1213.999, 155.657
1214.481, 158.347
1214.963, 161.526
1215.445, 166.124
1215.927, 177.797
1216.409, 188.752
1216.892, 186.429
1217.374, 167.760
1217.856, 157.678
1218.338, 159.783
1218.820, 163.425
1219.302, 165.752
1219.784, 164.588
1220.266, 152.995
1220.749, 139.125
1221.231, 135.108
1221.713, 145.170
1222.195, 148.149
1222.677, 138.296
1223.159, 154.028
1223.641, 163.406
1224.123, 166.824
1224.605, 146.891
1225.088, 157.396
1225.570, 156.158
1226.052, 154.607
1226.534, 169.992
1227.016, 165.588
1227.498, 165.201
1227.980, 159.888
1228.462, 153.079
1228.944, 148.518
1229.427, 146.586
1229.909, 148.630
1230.391, 160.231
1230.873, 162.217
1231.355, 152.922
1231.837, 141.878
1232.319, 132.062
1232.801, 125.104
1233.284, 125.209
1233.766, 128.587
1234.248, 126.581
1234.730, 113.590
1235.212, 107.359
1235.694, 109.072
1236.176, 113.364
1236.658, 117.357
1237.141, 120.432
1237.623, 125.075
1238.105, 127.673
1238.587, 116.254
1239.069, 82.148
1239.551, 63.281
1240.033, 62.761
1240.515, 72.099
1240.997, 93.584
1241.479, 113.326
1241.962, 115.646
1242.444, 104.320
1242.926, 93.641
1243.408, 84.229
1243.890, 79.001
1244.372, 78.713
1244.854, 76.918
1245.336, 64.860
1245.819, 51.197
1246.301, 42.498
1246.783, 38.890
1247.265, 38.280
1247.747, 40.964
1248.229, 45.462
1248.711, 52.113
1249.193, 55.421
1249.676, 44.435
1250.158, 33.585
1250.640, 38.305
1251.122, 52.821
1251.604, 56.085
1252.086, 47.867
1252.568, 44.777
1253.050, 50.354
1253.532, 57.119
1254.015, 62.398
1254.497, 63.616
1254.979, 56.227
1255.461, 43.905
1255.943, 39.013
1256.425, 40.697
1256.907, 36.732
1257.389, 22.951
1257.871, 14.883
1258.354, 30.320
1258.836, 46.539
1259.318, 49.823
1259.800, 44.243
1260.282, 44.049
1260.764, 47.708
1261.246, 46.829
1261.728, 39.022
1262.211, 29.264
1262.693, 13.925
1263.175, 5.024
1263.657, 10.817
1264.139, 25.121
1264.621, 28.378
1265.103, 23.648
1265.585, 21.942
1266.068, 28.154
1266.550, 27.898
1267.032, 3.031
1267.514, 9.627
1267.996, 12.810
1268.478, 50.567
1268.960, 48.891
1269.442, 22.633
1269.924, 5.844
1270.407, 8.916
1270.889, 15.819
1271.371, 25.964
1271.853, 34.790
1272.335, 40.747
1272.817, 42.750
1273.299, 34.056
1273.781, 21.046
1274.264, 15.401
1274.746, 22.094
1275.228, 32.802
1275.710, 51.095
1276.192, 58.527
1276.674, 38.261
1277.156, 13.142
1277.638, 22.447
1278.120, 45.688
1278.603, 49.427
1279.085, 21.305
1279.567, 13.344
1280.049, 27.701
1280.531, 41.573
1281.013, 43.527
1281.495, 41.698
1281.977, 42.215
1282.459, 44.228
1282.942, 46.662
1283.424, 54.111
1283.906, 50.125
1284.388, 35.345
1284.870, 26.859
1285.352, 37.397
1285.834, 49.562
1286.316, 52.237
1286.799, 50.326
1287.281, 49.733
1287.763, 49.909
1288.245, 34.130
1288.727, 5.809
1289.209, 7.850
1289.691, 17.920
1290.173, 42.384
1290.656, 50.398
1291.138, 50.912
1291.620, 49.418
1292.102, 45.628
1292.584, 34.277
1293.066, 18.492
1293.548, 0.179
1294.030, 8.875
1294.512, 17.954
1294.995, 26.538
1295.477, 29.300
1295.959, 15.310
1296.441, 0.103
1296.923, 2.978
1297.405, 0.000
##END=



