##NAMES=Talmessite
##RRUFFID=R060830
##IDEAL CHEMISTRY=Ca_2_Mg(As^5+^O_4_)_2_&#183;2H_2_O
##LOCALITY=Bou Azzer, Morocco
##OWNER=RRUFF
##SOURCE=Michael Scott
##DESCRIPTION=Aggregates of reddish orange platy crystals associated with reddish purple erythrite
##STATUS=The identification of this mineral has been confirmed only by single crystal X-ray diffraction.
##URL=rruff.info/R060830
111.3986, 0.0000000E+00
111.8807, 1.517456
112.3628, 0.8660280
112.8449, 1.990601
113.3271, 9.430969
113.8092, 19.88434
114.2913, 32.49780
114.7734, 52.19788
115.2555, 84.52985
115.7376, 122.3312
116.2198, 157.2665
116.7019, 180.3281
117.1840, 204.8952
117.6661, 236.9716
118.1482, 275.6927
118.6303, 322.8779
119.1124, 395.4765
119.5946, 477.2644
120.0767, 535.6492
120.5588, 551.8372
121.0409, 539.3949
121.5230, 506.3815
122.0051, 445.1989
122.4873, 382.7645
122.9694, 336.1420
123.4515, 307.4672
123.9336, 281.9244
124.4157, 248.1362
124.8979, 213.5796
125.3800, 181.1309
125.8621, 150.9800
126.3442, 123.8254
126.8263, 99.87524
127.3084, 79.25500
127.7905, 63.57007
128.2727, 57.49353
128.7548, 58.43713
129.2369, 57.92798
129.7190, 50.63037
130.2011, 39.38110
130.6832, 33.35461
131.1654, 33.72644
131.6475, 34.48169
132.1296, 25.49329
132.6117, 7.347290
133.0938, 8.401245
133.5759, 13.83838
134.0581, 10.01233
134.5402, 11.32764
135.0223, 20.80725
135.5044, 32.46997
135.9865, 32.67383
136.4686, 20.11792
136.9508, 4.034058
137.4329, 9.440674
137.9150, 19.35510
138.3971, 34.01172
138.8792, 58.42578
139.3613, 88.12183
139.8434, 99.51770
140.3256, 85.23108
140.8077, 67.08984
141.2898, 64.14539
141.7719, 82.72266
142.2540, 98.58386
142.7361, 105.9659
143.2183, 104.8409
143.7004, 108.5444
144.1825, 118.1515
144.6646, 131.5643
145.1467, 145.2988
145.6288, 153.3313
146.1110, 171.2432
146.5931, 205.1183
147.0752, 261.6293
147.5573, 310.0051
148.0394, 339.0040
148.5215, 362.9661
149.0037, 405.7162
149.4858, 476.6245
149.9679, 556.5942
150.4500, 640.6226
150.9321, 724.3005
151.4142, 818.3418
151.8964, 925.2134
152.3785, 1042.693
152.8606, 1164.689
153.3427, 1300.718
153.8248, 1435.725
154.3069, 1562.528
154.7890, 1661.356
155.2712, 1777.218
155.7533, 1922.627
156.2354, 2092.065
156.7175, 2263.708
157.1996, 2429.202
157.6817, 2599.733
158.1639, 2783.155
158.6460, 3003.447
159.1281, 3215.343
159.6102, 3427.053
160.0923, 3634.437
160.5744, 3773.216
161.0566, 3838.941
161.5387, 3817.754
162.0208, 3696.317
162.5029, 3394.920
162.9850, 3052.504
163.4671, 2717.042
163.9493, 2392.751
164.4314, 2101.468
164.9135, 1846.424
165.3956, 1632.988
165.8777, 1468.494
166.3598, 1367.849
166.8420, 1312.778
167.3241, 1292.878
167.8062, 1308.953
168.2883, 1347.996
168.7704, 1409.883
169.2525, 1481.926
169.7346, 1554.991
170.2168, 1617.195
170.6989, 1678.062
171.1810, 1745.880
171.6631, 1822.415
172.1452, 1908.006
172.6273, 2009.674
173.1095, 2122.533
173.5916, 2234.171
174.0737, 2337.786
174.5558, 2435.732
175.0379, 2533.318
175.5201, 2642.554
176.0022, 2735.900
176.4843, 2783.261
176.9664, 2786.293
177.4485, 2755.199
177.9306, 2698.252
178.4128, 2612.214
178.8949, 2485.020
179.3770, 2289.942
179.8591, 2073.317
180.3412, 1899.631
180.8233, 1766.950
181.3055, 1663.708
181.7876, 1587.259
182.2697, 1533.002
182.7518, 1483.297
183.2339, 1423.377
183.7160, 1368.622
184.1982, 1356.293
184.6803, 1387.747
185.1624, 1441.384
185.6445, 1503.290
186.1266, 1571.346
186.6087, 1637.776
187.0908, 1691.235
187.5730, 1740.179
188.0551, 1812.959
188.5372, 1912.771
189.0193, 2026.497
189.5014, 2143.222
189.9835, 2263.659
190.4657, 2382.594
190.9478, 2495.959
191.4299, 2605.820
191.9120, 2721.111
192.3941, 2844.709
192.8762, 2965.424
193.3584, 3072.190
193.8405, 3165.426
194.3226, 3233.669
194.8047, 3278.236
195.2868, 3297.453
195.7689, 3261.495
196.2511, 3166.726
196.7332, 3019.774
197.2153, 2823.292
197.6974, 2571.528
198.1795, 2312.138
198.6616, 2066.990
199.1438, 1833.860
199.6259, 1616.009
200.1080, 1410.114
200.5901, 1222.225
201.0722, 1072.334
201.5543, 962.7944
202.0364, 876.0857
202.5186, 801.8838
203.0007, 739.4929
203.4828, 696.4819
203.9649, 677.0563
204.4470, 675.6243
204.9291, 673.5051
205.4113, 668.3315
205.8934, 669.4429
206.3755, 685.8894
206.8576, 721.2665
207.3397, 752.0593
207.8218, 772.6099
208.3040, 786.5564
208.7861, 812.5696
209.2682, 853.8315
209.7503, 899.4944
210.2324, 941.6465
210.7145, 979.0383
211.1967, 1017.365
211.6788, 1061.137
212.1609, 1107.929
212.6430, 1138.761
213.1251, 1154.820
213.6072, 1152.637
214.0894, 1128.052
214.5715, 1077.665
215.0536, 1014.128
215.5357, 937.7014
216.0178, 848.6169
216.4999, 757.4561
216.9820, 663.6082
217.4642, 569.4578
217.9463, 474.7102
218.4284, 376.4907
218.9105, 286.8152
219.3926, 207.0376
219.8747, 137.7517
220.3569, 81.60571
220.8390, 41.19336
221.3211, 11.11157
221.8032, 14.43652
222.2853, 33.74487
222.7674, 51.88232
223.2496, 71.10132
223.7317, 92.14648
224.2138, 104.5669
224.6959, 107.9883
225.1780, 103.1995
225.6601, 89.35229
226.1423, 60.36377
226.6244, 34.81958
227.1065, 19.42529
227.5886, 16.10889
228.0707, 5.137695
228.5528, 15.84644
229.0350, 42.80347
229.5171, 72.48999
229.9992, 106.2981
230.4813, 139.8840
230.9634, 172.0278
231.4455, 202.9048
231.9276, 232.2820
232.4098, 254.2178
232.8919, 277.0881
233.3740, 314.0510
233.8561, 376.2917
234.3382, 433.2322
234.8203, 477.9329
235.3025, 508.8242
235.7846, 535.5115
236.2667, 554.5425
236.7488, 571.7578
237.2309, 596.4832
237.7130, 634.9429
238.1952, 670.1042
238.6773, 697.3962
239.1594, 716.4507
239.6415, 728.7202
240.1236, 730.4783
240.6057, 727.8936
241.0879, 730.3621
241.5700, 737.8909
242.0521, 750.5181
242.5342, 770.3052
243.0163, 801.3669
243.4984, 822.3879
243.9806, 826.4363
244.4627, 824.3857
244.9448, 834.6667
245.4269, 864.3787
245.9090, 894.6553
246.3911, 919.0513
246.8732, 934.8113
247.3554, 955.1621
247.8375, 982.3335
248.3196, 1012.591
248.8017, 1039.212
249.2838, 1057.571
249.7659, 1079.854
250.2481, 1112.071
250.7302, 1158.968
251.2123, 1197.408
251.6944, 1228.203
252.1765, 1250.292
252.6586, 1263.306
253.1408, 1270.923
253.6229, 1263.258
254.1050, 1235.331
254.5871, 1183.759
255.0692, 1126.878
255.5513, 1058.011
256.0334, 988.6758
256.5156, 939.0442
256.9977, 920.6318
257.4798, 899.1077
257.9619, 860.2996
258.4440, 797.1340
258.9261, 753.8540
259.4083, 727.2009
259.8904, 717.9229
260.3725, 722.6692
260.8546, 743.3496
261.3367, 773.9702
261.8188, 811.5645
262.3010, 855.8984
262.7831, 918.2683
263.2652, 998.7119
263.7473, 1090.139
264.2294, 1185.703
264.7115, 1284.145
265.1937, 1388.374
265.6758, 1499.069
266.1579, 1615.465
266.6400, 1741.214
267.1221, 1876.625
267.6042, 2019.809
268.0864, 2168.534
268.5685, 2330.233
269.0506, 2479.397
269.5327, 2605.709
270.0148, 2707.616
270.4969, 2808.209
270.9791, 2907.390
271.4612, 3005.475
271.9433, 3107.379
272.4254, 3220.557
272.9075, 3306.689
273.3896, 3350.770
273.8718, 3352.227
274.3539, 3336.281
274.8360, 3307.978
275.3181, 3252.295
275.8002, 3143.207
276.2823, 2973.918
276.7645, 2791.032
277.2466, 2605.732
277.7287, 2417.685
278.2108, 2222.677
278.6929, 2018.209
279.1750, 1810.070
279.6572, 1598.208
280.1393, 1380.605
280.6214, 1182.648
281.1035, 1014.841
281.5856, 874.3914
282.0677, 741.4565
282.5499, 616.4731
283.0320, 500.2290
283.5141, 390.6245
283.9962, 288.3667
284.4783, 206.7476
284.9604, 155.4373
285.4425, 126.6230
285.9247, 86.04272
286.4068, 31.70068
286.8889, 20.61328
287.3710, 53.25415
287.8531, 67.33716
288.3352, 76.91016
288.8174, 87.34009
289.2995, 95.43188
289.7816, 90.25366
290.2637, 71.49487
290.7458, 45.89526
291.2279, 20.49121
291.7101, 5.905518
292.1922, 40.94604
292.6743, 90.08398
293.1564, 145.8398
293.6385, 188.2761
294.1206, 217.3220
294.6028, 250.9998
295.0849, 304.8245
295.5670, 375.5432
296.0491, 453.7622
296.5312, 539.0017
297.0133, 627.6025
297.4955, 713.4387
297.9776, 795.5115
298.4597, 878.7539
298.9418, 964.7603
299.4239, 1053.780
299.9060, 1145.807
300.3882, 1239.797
300.8703, 1337.118
301.3524, 1438.583
301.8345, 1543.764
302.3166, 1650.327
302.7987, 1769.445
303.2809, 1885.919
303.7630, 1980.745
304.2451, 2051.255
304.7272, 2094.272
305.2093, 2107.881
305.6914, 2090.846
306.1736, 2039.765
306.6557, 1942.598
307.1378, 1814.243
307.6199, 1668.149
308.1020, 1501.227
308.5841, 1329.660
309.0663, 1158.686
309.5484, 990.6169
310.0305, 837.2922
310.5126, 707.4443
310.9947, 590.5417
311.4768, 477.4802
311.9590, 365.4502
312.4411, 268.6543
312.9232, 203.0334
313.4053, 158.0774
313.8874, 117.5962
314.3695, 72.38208
314.8517, 30.63257
315.3337, 10.58960
315.8159, 54.65723
316.2980, 67.14111
316.7801, 1.515137
317.2622, 99.82227
317.7443, 165.2776
318.2264, 168.5349
318.7086, 142.5310
319.1907, 84.43335
319.6728, 6.743408
320.1549, 72.45703
320.6370, 83.29810
321.1191, 66.63647
321.6013, 46.85742
322.0834, 32.33618
322.5655, 12.36304
323.0476, 19.69214
323.5297, 62.83350
324.0118, 99.20630
324.4940, 114.9685
324.9761, 129.5889
325.4582, 155.9426
325.9403, 210.6638
326.4224, 259.8159
326.9045, 283.1904
327.3867, 289.8560
327.8688, 340.0701
328.3509, 492.0637
328.8330, 644.0044
329.3151, 748.8232
329.7972, 762.4275
330.2794, 791.2563
330.7615, 839.5112
331.2436, 903.9136
331.7257, 972.0566
332.2078, 1033.979
332.6899, 1112.742
333.1721, 1220.581
333.6542, 1368.911
334.1363, 1514.916
334.6184, 1656.091
335.1005, 1797.183
335.5826, 1948.995
336.0648, 2110.303
336.5469, 2286.038
337.0290, 2480.288
337.5111, 2695.370
337.9932, 2916.711
338.4753, 3138.428
338.9575, 3373.525
339.4396, 3636.818
339.9217, 3925.715
340.4038, 4261.669
340.8859, 4671.285
341.3680, 5142.690
341.8502, 5583.906
342.3323, 5983.918
342.8144, 6364.278
343.2965, 6725.659
343.7786, 7071.268
344.2607, 7445.663
344.7429, 7865.838
345.2250, 8321.802
345.7071, 8786.414
346.1892, 9266.018
346.6713, 9757.278
347.1534, 10286.38
347.6355, 10840.84
348.1176, 11365.64
348.5998, 11849.38
349.0819, 12309.96
349.5640, 12773.72
350.0461, 13245.22
350.5282, 13720.11
351.0103, 14245.28
351.4925, 14766.01
351.9746, 15186.21
352.4567, 15485.94
352.9388, 15691.71
353.4209, 15807.99
353.9030, 15849.22
354.3852, 15856.82
354.8673, 15864.45
355.3494, 15844.02
355.8315, 15753.44
356.3136, 15583.88
356.7957, 15403.89
357.2779, 15268.70
357.7600, 15156.25
358.2421, 15033.39
358.7242, 14886.84
359.2063, 14723.47
359.6884, 14562.17
360.1706, 14402.84
360.6527, 14189.18
361.1348, 13896.89
361.6169, 13534.50
362.0990, 13114.13
362.5811, 12632.14
363.0633, 12094.01
363.5454, 11485.96
364.0275, 10816.37
364.5096, 10135.11
364.9917, 9420.780
365.4738, 8721.525
365.9560, 8062.366
366.4381, 7454.254
366.9202, 6886.696
367.4023, 6347.970
367.8844, 5845.706
368.3665, 5400.251
368.8487, 5031.379
369.3308, 4701.947
369.8129, 4401.560
370.2950, 4125.459
370.7771, 3893.830
371.2592, 3714.858
371.7414, 3576.646
372.2235, 3460.611
372.7056, 3371.425
373.1877, 3294.435
373.6698, 3220.553
374.1519, 3149.986
374.6341, 3121.790
375.1162, 3137.731
375.5983, 3184.375
376.0804, 3252.488
376.5625, 3344.414
377.0446, 3444.316
377.5267, 3547.341
378.0089, 3652.380
378.4910, 3765.277
378.9731, 3886.674
379.4552, 4020.248
379.9373, 4166.875
380.4194, 4328.046
380.9016, 4500.402
381.3837, 4686.251
381.8658, 4879.996
382.3479, 5072.114
382.8300, 5262.438
383.3121, 5458.268
383.7943, 5667.191
384.2764, 5882.198
384.7585, 6098.242
385.2406, 6317.729
385.7227, 6509.826
386.2048, 6647.869
386.6870, 6728.752
387.1691, 6744.007
387.6512, 6686.775
388.1333, 6562.483
388.6154, 6374.457
389.0975, 6122.914
389.5797, 5807.545
390.0618, 5397.379
390.5439, 4936.337
391.0260, 4482.053
391.5081, 4040.947
391.9902, 3625.564
392.4724, 3233.076
392.9545, 2868.363
393.4366, 2542.384
393.9187, 2276.468
394.4008, 2041.164
394.8829, 1810.284
395.3651, 1568.341
395.8472, 1359.495
396.3293, 1208.683
396.8114, 1096.117
397.2935, 987.1824
397.7756, 865.3799
398.2578, 756.3428
398.7399, 669.0334
399.2220, 608.0508
399.7041, 549.5486
400.1862, 493.1965
400.6683, 439.3208
401.1505, 387.9771
401.6326, 336.6272
402.1147, 292.0203
402.5968, 256.4736
403.0789, 228.9934
403.5610, 201.0237
404.0432, 172.2781
404.5253, 143.6333
405.0074, 114.9492
405.4895, 85.19702
405.9716, 60.02026
406.4537, 40.64160
406.9359, 25.17407
407.4180, 8.741455
407.9001, 9.436523
408.3822, 22.40527
408.8643, 23.88525
409.3464, 15.82495
409.8285, 13.75830
410.3106, 18.40063
410.7928, 26.07471
411.2749, 34.30493
411.7570, 42.54736
412.2391, 48.00854
412.7212, 48.28979
413.2033, 46.36792
413.6855, 48.00098
414.1676, 52.72827
414.6497, 55.94409
415.1318, 55.06250
415.6139, 50.28516
416.0960, 40.66211
416.5782, 22.50684
417.0603, 6.646729
417.5424, 3.717529
418.0245, 9.797852
418.5066, 15.35474
418.9887, 20.32544
419.4709, 20.32104
419.9530, 10.75757
420.4351, 10.64819
420.9172, 30.76147
421.3993, 44.35767
421.8814, 54.44019
422.3636, 64.32568
422.8457, 68.98999
423.3278, 79.58496
423.8099, 100.6211
424.2920, 131.7939
424.7741, 162.5413
425.2563, 196.1975
425.7384, 226.4800
426.2205, 248.7178
426.7026, 253.8157
427.1847, 267.0432
427.6668, 288.0251
428.1490, 317.7363
428.6311, 360.0996
429.1132, 421.1611
429.5953, 481.9539
430.0774, 532.1306
430.5595, 570.7146
431.0417, 622.7354
431.5238, 689.6570
432.0059, 765.8770
432.4880, 842.8799
432.9701, 920.7307
433.4522, 1012.794
433.9344, 1128.004
434.4165, 1256.498
434.8986, 1374.146
435.3807, 1481.711
435.8628, 1598.903
436.3449, 1747.296
436.8271, 1915.110
437.3092, 2071.139
437.7913, 2202.041
438.2734, 2346.668
438.7555, 2555.784
439.2376, 2809.125
439.7197, 3060.044
440.2018, 3270.165
440.6840, 3479.933
441.1661, 3724.278
441.6482, 4002.591
442.1303, 4291.682
442.6124, 4573.140
443.0945, 4863.613
443.5767, 5175.071
444.0588, 5530.781
444.5409, 5889.107
445.0230, 6243.355
445.5051, 6593.779
445.9872, 6935.923
446.4694, 7281.920
446.9515, 7607.795
447.4336, 7906.756
447.9157, 8183.744
448.3978, 8421.597
448.8799, 8619.951
449.3621, 8776.497
449.8442, 8881.849
450.3263, 8923.458
450.8084, 8943.562
451.2905, 8947.938
451.7726, 8938.481
452.2548, 8923.637
452.7369, 8898.346
453.2190, 8890.605
453.7011, 8933.521
454.1832, 9026.181
454.6653, 9106.866
455.1475, 9168.260
455.6296, 9219.419
456.1117, 9286.214
456.5938, 9363.323
457.0759, 9415.035
457.5580, 9436.015
458.0402, 9415.762
458.5223, 9336.959
459.0044, 9199.020
459.4865, 9003.568
459.9686, 8741.796
460.4507, 8425.208
460.9329, 8060.485
461.4150, 7638.437
461.8971, 7197.800
462.3792, 6744.282
462.8613, 6289.649
463.3434, 5853.337
463.8256, 5449.118
464.3077, 5068.068
464.7898, 4701.886
465.2719, 4350.632
465.7540, 4015.092
466.2361, 3687.150
466.7183, 3375.368
467.2004, 3093.857
467.6825, 2849.118
468.1646, 2627.120
468.6467, 2426.700
469.1288, 2246.958
469.6110, 2080.643
470.0930, 1926.627
470.5752, 1786.708
471.0573, 1662.685
471.5394, 1558.393
472.0215, 1455.167
472.5036, 1352.526
472.9857, 1251.317
473.4679, 1148.888
473.9500, 1046.014
474.4321, 958.7559
474.9142, 896.8235
475.3963, 853.1187
475.8784, 805.7932
476.3606, 755.5903
476.8427, 703.7927
477.3248, 651.9446
477.8069, 600.4426
478.2890, 549.6260
478.7711, 496.6104
479.2533, 448.3372
479.7354, 412.3826
480.2175, 386.1254
480.6996, 363.9576
481.1817, 344.3817
481.6638, 327.3882
482.1460, 314.0255
482.6281, 304.4751
483.1102, 294.1243
483.5923, 282.3279
484.0744, 267.9390
484.5565, 250.1490
485.0387, 225.9968
485.5208, 202.2463
486.0029, 176.2842
486.4850, 150.9905
486.9671, 133.9458
487.4492, 129.5254
487.9314, 127.5823
488.4135, 125.7454
488.8956, 124.4004
489.3777, 119.7728
489.8598, 110.6772
490.3419, 100.7749
490.8241, 93.67175
491.3062, 89.54150
491.7883, 85.82336
492.2704, 83.11963
492.7525, 79.33887
493.2346, 66.52991
493.7168, 45.91980
494.1989, 29.82764
494.6810, 29.46887
495.1631, 37.46277
495.6452, 39.10413
496.1273, 33.30554
496.6095, 26.69421
497.0916, 25.64490
497.5737, 27.26074
498.0558, 27.44495
498.5379, 22.56348
499.0201, 18.85498
499.5022, 23.36243
499.9843, 32.53357
500.4664, 35.15063
500.9485, 23.63123
501.4306, 7.749634
501.9127, 10.25439
502.3948, 33.69312
502.8770, 45.97302
503.3591, 36.08777
503.8412, 19.89343
504.3233, 12.12292
504.8054, 21.17554
505.2875, 24.30566
505.7697, 28.20422
506.2518, 7.514404
506.7339, 4.000366
507.2160, 6.852417
507.6981, 24.90515
508.1802, 12.00940
508.6624, 17.14844
509.1445, 23.09717
509.6266, 4.130737
510.1087, 31.07385
510.5908, 12.39319
511.0729, 12.33325
511.5551, 6.739136
512.0372, 20.87512
512.5193, 39.75647
513.0014, 43.32947
513.4835, 35.01172
513.9656, 26.83081
514.4478, 27.63599
514.9299, 29.86145
515.4120, 26.59863
515.8941, 16.29456
516.3762, 7.720215
516.8583, 5.982910
517.3405, 7.016479
517.8226, 6.987549
518.3047, 2.750977
518.7868, 0.3649900
519.2689, 2.969971
519.7510, 8.382690
520.2332, 9.257813
520.7153, 3.352661
521.1974, 3.990967
521.6795, 12.02246
522.1616, 21.50012
522.6437, 24.24890
523.1259, 18.50781
523.6080, 9.699341
524.0901, 2.490967
524.5722, 3.081055
525.0543, 4.731812
525.5364, 0.6856690
526.0186, 4.997559
526.5007, 3.036621
526.9828, 4.899902
527.4649, 9.534912
527.9470, 1.166504
528.4291, 11.22900
528.9113, 14.75696
529.3934, 8.850586
529.8755, 3.611816
530.3576, 8.305786
530.8397, 15.84729
531.3218, 18.77893
531.8040, 11.71899
532.2861, 5.117188
532.7682, 25.80359
533.2503, 3.623047
533.7324, 23.86499
534.2145, 35.47522
534.6967, 12.50195
535.1788, 34.22632
535.6609, 37.99023
536.1430, 40.96875
536.6251, 68.86255
537.1072, 58.52039
537.5894, 64.42920
538.0715, 58.45422
538.5536, 53.81604
539.0357, 52.47607
539.5178, 50.81335
539.9999, 37.31262
540.4821, 14.12781
540.9642, 3.860107
541.4463, 23.66541
541.9284, 56.69714
542.4105, 70.93713
542.8926, 68.04895
543.3748, 62.43152
543.8569, 61.50024
544.3390, 64.23352
544.8211, 70.33423
545.3032, 80.86206
545.7853, 90.48608
546.2675, 97.50586
546.7495, 101.7555
547.2316, 103.0568
547.7137, 96.20667
548.1959, 92.11072
548.6780, 96.67224
549.1601, 107.4177
549.6422, 109.3982
550.1243, 94.85413
550.6064, 81.93677
551.0886, 78.15320
551.5707, 84.64221
552.0528, 94.69336
552.5349, 110.6075
553.0170, 124.3605
553.4991, 124.4368
553.9813, 111.6039
554.4634, 103.7402
554.9455, 106.0963
555.4276, 112.3009
555.9097, 111.3994
556.3918, 104.8655
556.8740, 98.54761
557.3561, 94.77283
557.8382, 93.26135
558.3203, 94.01685
558.8024, 96.94678
559.2845, 100.7998
559.7667, 106.8414
560.2488, 110.7014
560.7309, 109.8859
561.2130, 102.9445
561.6951, 97.06421
562.1772, 92.38306
562.6594, 88.05322
563.1415, 84.81567
563.6236, 83.80261
564.1057, 83.30298
564.5878, 79.73755
565.0699, 74.34106
565.5521, 79.49438
566.0342, 102.7844
566.5163, 121.0232
566.9984, 118.3444
567.4805, 97.95081
567.9626, 75.91345
568.4448, 53.66687
568.9269, 41.88135
569.4090, 65.07349
569.8911, 107.8209
570.3732, 133.5510
570.8553, 127.6178
571.3375, 110.7660
571.8196, 95.83264
572.3017, 83.52527
572.7838, 77.38916
573.2659, 86.36572
573.7480, 96.53271
574.2302, 97.89746
574.7123, 88.96094
575.1944, 87.72510
575.6765, 108.5747
576.1586, 129.7036
576.6407, 138.0424
577.1229, 126.4182
577.6050, 116.6865
578.0871, 110.2688
578.5692, 104.9220
579.0513, 94.19580
579.5334, 75.92017
580.0156, 69.59534
580.4977, 85.07678
580.9798, 112.2017
581.4619, 124.1110
581.9440, 121.8888
582.4261, 117.4277
582.9083, 119.3490
583.3904, 123.4088
583.8725, 122.2207
584.3546, 114.9684
584.8367, 108.4120
585.3188, 105.4073
585.8010, 106.4940
586.2831, 112.4242
586.7652, 129.7872
587.2473, 141.7961
587.7294, 141.2141
588.2115, 132.9789
588.6937, 126.5947
589.1758, 120.1538
589.6579, 118.9463
590.1400, 127.1093
590.6221, 142.0486
591.1042, 147.4219
591.5864, 139.1829
592.0685, 131.3112
592.5506, 132.9686
593.0327, 143.6681
593.5148, 154.9534
593.9969, 167.4515
594.4791, 175.3575
594.9612, 164.2325
595.4433, 144.1854
595.9254, 140.4437
596.4075, 171.6654
596.8896, 200.0752
597.3718, 180.2279
597.8539, 134.4010
598.3360, 110.0616
598.8181, 154.4393
599.3002, 197.8094
599.7823, 206.3622
600.2645, 179.9506
600.7466, 161.9031
601.2287, 159.7631
601.7108, 162.4021
602.1929, 164.3806
602.6750, 164.1401
603.1572, 170.4548
603.6393, 186.5964
604.1214, 203.3671
604.6035, 210.0129
605.0856, 206.6125
605.5677, 198.3428
606.0499, 182.2123
606.5320, 169.0471
607.0141, 185.1439
607.4962, 221.1140
607.9783, 244.4746
608.4604, 223.9053
608.9425, 193.7018
609.4246, 184.2972
609.9067, 194.5754
610.3889, 207.7584
610.8710, 219.2548
611.3531, 229.1454
611.8352, 238.7269
612.3173, 252.3921
612.7994, 253.2604
613.2816, 225.7268
613.7637, 196.6416
614.2458, 195.5956
614.7279, 235.9255
615.2100, 261.9440
615.6921, 265.0463
616.1743, 252.4873
616.6564, 234.9230
617.1385, 212.7460
617.6206, 199.1632
618.1027, 201.7502
618.5848, 215.3728
619.0670, 234.0042
619.5491, 256.5457
620.0312, 274.9316
620.5133, 283.1597
620.9954, 285.2949
621.4775, 283.3040
621.9597, 276.0903
622.4418, 272.1851
622.9239, 276.4324
623.4060, 284.6024
623.8881, 293.0474
624.3702, 302.5251
624.8524, 310.0294
625.3345, 315.7838
625.8166, 319.5408
626.2987, 319.7979
626.7808, 315.4398
627.2629, 312.4039
627.7451, 311.5243
628.2272, 313.6122
628.7093, 324.8087
629.1914, 344.4503
629.6735, 359.9519
630.1556, 360.4491
630.6378, 352.5719
631.1199, 344.7870
631.6020, 337.7836
632.0841, 333.4836
632.5662, 331.6317
633.0483, 333.2297
633.5305, 340.6625
634.0126, 361.3328
634.4947, 373.6050
634.9768, 366.3738
635.4589, 351.5411
635.9410, 344.3458
636.4232, 347.4113
636.9053, 352.8726
637.3874, 361.4686
637.8695, 370.3451
638.3516, 369.5110
638.8337, 358.0863
639.3159, 350.6804
639.7980, 356.7853
640.2801, 370.9535
640.7622, 377.5128
641.2443, 377.0393
641.7264, 377.8525
642.2086, 393.0916
642.6907, 409.2185
643.1728, 409.0031
643.6549, 386.7214
644.1370, 367.1152
644.6191, 360.2764
645.1013, 362.5110
645.5834, 369.5792
646.0655, 385.5791
646.5476, 396.9055
647.0297, 402.2928
647.5118, 404.8164
647.9940, 408.9224
648.4761, 415.0946
648.9582, 419.3870
649.4403, 419.2822
649.9224, 417.0215
650.4045, 419.7166
650.8867, 427.4618
651.3688, 437.5287
651.8509, 447.9006
652.3330, 459.6077
652.8151, 476.9103
653.2972, 498.7023
653.7794, 513.1074
654.2615, 505.0608
654.7436, 492.2515
655.2257, 488.4045
655.7078, 498.0698
656.1899, 510.4575
656.6721, 531.3436
657.1542, 550.5540
657.6363, 556.8442
658.1184, 542.8561
658.6005, 537.0422
659.0826, 544.2871
659.5648, 559.1749
660.0469, 572.8865
660.5290, 584.4231
661.0111, 589.9069
661.4932, 584.9417
661.9753, 578.1360
662.4575, 583.5281
662.9396, 598.7209
663.4217, 614.1121
663.9038, 623.2773
664.3859, 632.1189
664.8680, 643.2019
665.3502, 655.8760
665.8323, 670.4089
666.3144, 692.7925
666.7965, 713.9272
667.2786, 728.8125
667.7607, 735.5437
668.2429, 741.9276
668.7250, 746.9263
669.2071, 751.5752
669.6892, 757.2373
670.1713, 764.3173
670.6534, 774.4153
671.1355, 787.9009
671.6176, 799.7371
672.0997, 801.1035
672.5818, 795.7830
673.0640, 793.1826
673.5461, 800.1365
674.0282, 809.6335
674.5103, 817.4382
674.9924, 822.7151
675.4745, 824.1508
675.9567, 822.3584
676.4388, 817.2325
676.9209, 805.8501
677.4030, 788.6445
677.8851, 777.9612
678.3672, 773.4880
678.8494, 775.8000
679.3315, 790.1174
679.8136, 816.3208
680.2957, 824.8898
680.7778, 813.6328
681.2599, 799.4841
681.7421, 802.6954
682.2242, 813.9478
682.7063, 812.5779
683.1884, 792.5863
683.6705, 769.6428
684.1526, 754.1189
684.6348, 742.5305
685.1169, 730.6306
685.5990, 717.7365
686.0811, 704.0239
686.5632, 685.4177
687.0453, 667.0698
687.5275, 660.8226
688.0096, 675.9102
688.4917, 680.3171
688.9738, 662.2605
689.4559, 629.7542
689.9380, 612.0571
690.4202, 608.8403
690.9023, 606.9763
691.3844, 600.7083
691.8665, 590.3107
692.3486, 574.2791
692.8307, 553.1503
693.3129, 533.5023
693.7950, 518.0247
694.2771, 506.4492
694.7592, 500.0791
695.2413, 501.2424
695.7234, 497.7532
696.2056, 485.1814
696.6877, 469.1504
697.1698, 452.5747
697.6519, 433.9569
698.1340, 421.1615
698.6161, 416.4165
699.0983, 413.5464
699.5804, 401.9106
700.0625, 383.6990
700.5446, 374.3792
701.0267, 383.0947
701.5089, 389.4241
701.9910, 359.8757
702.4731, 311.3008
702.9552, 278.1875
703.4373, 294.2646
703.9194, 308.8916
704.4016, 297.7605
704.8837, 266.8088
705.3658, 240.6162
705.8479, 221.6848
706.3300, 207.0232
706.8121, 197.7888
707.2943, 192.9338
707.7764, 180.9360
708.2585, 160.8447
708.7406, 140.0918
709.2227, 121.4648
709.7048, 105.9309
710.1870, 97.29468
710.6691, 95.77710
711.1512, 96.45093
711.6333, 99.76782
712.1154, 101.5422
712.5975, 97.12305
713.0797, 85.14087
713.5618, 70.84058
714.0439, 53.70068
714.5260, 36.00610
715.0081, 19.76514
715.4902, 5.433105
715.9724, 9.781250
716.4545, 28.17432
716.9366, 44.32959
717.4187, 46.92749
717.9008, 36.89453
718.3829, 36.13647
718.8651, 51.26440
719.3472, 73.77319
719.8293, 93.59424
720.3114, 111.5913
720.7935, 129.7307
721.2756, 157.3252
721.7578, 177.0686
722.2399, 173.8047
722.7220, 154.2288
723.2041, 143.3667
723.6862, 148.4185
724.1683, 157.9983
724.6505, 171.7712
725.1326, 188.6262
725.6147, 197.7625
726.0968, 197.2061
726.5789, 199.7532
727.0610, 219.1416
727.5432, 246.9028
728.0253, 255.3057
728.5074, 245.1213
728.9895, 228.5596
729.4716, 204.3538
729.9537, 184.4380
730.4359, 185.2834
730.9180, 212.3984
731.4001, 229.4734
731.8822, 215.6831
732.3643, 195.6460
732.8464, 187.1885
733.3285, 197.6709
733.8106, 200.5386
734.2927, 194.9556
734.7748, 183.4106
735.2570, 166.2505
735.7391, 144.2190
736.2212, 123.4065
736.7033, 104.3994
737.1854, 87.96875
737.6675, 78.34351
738.1497, 71.36084
738.6318, 58.84204
739.1139, 31.67871
739.5960, 7.084229
740.0781, 2.218262
740.5602, 5.604004
741.0424, 21.79004
741.5245, 56.59619
742.0066, 96.54883
742.4887, 142.2222
742.9708, 189.3687
743.4529, 223.8135
743.9351, 244.7397
744.4172, 274.8242
744.8993, 331.4697
745.3814, 396.2378
745.8635, 433.3081
746.3456, 448.7979
746.8278, 466.9668
747.3099, 499.4341
747.7920, 538.8970
748.2741, 588.1431
748.7562, 645.5142
749.2383, 683.7280
749.7205, 688.7495
750.2026, 686.9976
750.6847, 685.6582
751.1668, 685.1602
751.6489, 689.2637
752.1310, 695.8628
752.6132, 721.5703
753.0953, 785.0459
753.5774, 876.8179
754.0595, 971.9092
754.5416, 1070.456
755.0237, 1158.661
755.5059, 1219.370
755.9880, 1270.788
756.4701, 1330.788
756.9522, 1404.019
757.4343, 1476.037
757.9164, 1539.661
758.3986, 1604.283
758.8807, 1679.275
759.3628, 1767.400
759.8449, 1849.307
760.3270, 1921.523
760.8091, 1991.753
761.2913, 2078.493
761.7734, 2173.517
762.2555, 2251.272
762.7376, 2305.743
763.2197, 2347.743
763.7018, 2382.116
764.1840, 2411.906
764.6661, 2442.202
765.1482, 2476.567
765.6303, 2507.023
766.1124, 2534.637
766.5945, 2555.904
767.0767, 2564.564
767.5588, 2559.868
768.0409, 2542.472
768.5230, 2507.831
769.0051, 2467.328
769.4872, 2445.055
769.9694, 2437.455
770.4515, 2427.517
770.9336, 2404.334
771.4157, 2380.092
771.8978, 2369.907
772.3799, 2367.479
772.8621, 2356.851
773.3442, 2319.529
773.8263, 2288.777
774.3084, 2275.656
774.7905, 2276.869
775.2726, 2281.283
775.7548, 2289.853
776.2369, 2302.615
776.7190, 2319.105
777.2011, 2338.425
777.6832, 2354.545
778.1653, 2369.334
778.6475, 2393.224
779.1296, 2442.743
779.6117, 2495.770
780.0938, 2529.691
780.5759, 2547.190
781.0580, 2573.899
781.5402, 2619.792
782.0223, 2672.389
782.5044, 2731.422
782.9865, 2795.195
783.4686, 2841.652
783.9507, 2871.913
784.4329, 2883.855
784.9150, 2871.351
785.3971, 2838.929
785.8792, 2805.264
786.3613, 2771.860
786.8434, 2740.740
787.3256, 2728.435
787.8077, 2709.176
788.2898, 2650.031
788.7719, 2542.874
789.2540, 2453.746
789.7361, 2409.591
790.2183, 2382.500
790.7004, 2358.381
791.1825, 2335.436
791.6646, 2318.391
792.1467, 2305.416
792.6288, 2306.356
793.1110, 2316.347
793.5930, 2347.465
794.0751, 2446.376
794.5573, 2617.995
795.0394, 2806.518
795.5215, 2941.334
796.0036, 3085.626
796.4857, 3305.645
796.9678, 3639.409
797.4500, 3954.585
797.9321, 4211.902
798.4142, 4473.727
798.8963, 4791.715
799.3784, 5181.345
799.8605, 5548.414
800.3427, 5885.969
800.8248, 6225.844
801.3069, 6609.884
801.7890, 7023.561
802.2711, 7444.720
802.7532, 7876.979
803.2354, 8283.151
803.7175, 8652.684
804.1996, 8987.547
804.6817, 9292.165
805.1638, 9577.773
805.6459, 9809.534
806.1281, 9978.559
806.6102, 10104.34
807.0923, 10201.33
807.5744, 10270.16
808.0565, 10328.60
808.5386, 10381.91
809.0208, 10410.41
809.5029, 10384.31
809.9850, 10318.63
810.4671, 10236.34
810.9492, 10134.79
811.4313, 10038.67
811.9135, 9973.751
812.3956, 9911.951
812.8777, 9818.078
813.3598, 9664.135
813.8419, 9538.709
814.3240, 9452.451
814.8062, 9386.050
815.2883, 9297.956
815.7704, 9199.056
816.2525, 9153.594
816.7346, 9172.012
817.2167, 9254.969
817.6989, 9402.781
818.1810, 9616.562
818.6631, 9896.563
819.1452, 10237.72
819.6273, 10657.47
820.1094, 11159.41
820.5916, 11740.86
821.0737, 12399.30
821.5558, 13118.76
822.0379, 13966.53
822.5200, 14956.93
823.0021, 16047.89
823.4843, 17179.50
823.9664, 18366.91
824.4485, 19681.00
824.9306, 21143.44
825.4127, 22742.88
825.8948, 24482.26
826.3770, 26345.11
826.8591, 28334.23
827.3412, 30385.35
827.8233, 32642.68
828.3054, 35130.36
828.7875, 37786.11
829.2697, 40465.66
829.7518, 43200.14
830.2339, 46062.16
830.7160, 49139.92
831.1981, 52264.08
831.6802, 55340.59
832.1624, 58315.06
832.6445, 61055.79
833.1266, 63650.28
833.6087, 65791.66
834.0908, 67586.66
834.5729, 68732.93
835.0551, 68946.81
835.5372, 68188.62
836.0193, 66560.27
836.5014, 64028.89
836.9835, 60726.11
837.4656, 56662.12
837.9478, 52005.28
838.4299, 47257.14
838.9120, 42413.47
839.3941, 37741.57
839.8762, 33353.81
840.3583, 29297.85
840.8405, 25619.23
841.3226, 22366.50
841.8047, 19532.98
842.2868, 17165.76
842.7689, 15142.22
843.2510, 13382.22
843.7332, 11894.47
844.2153, 10540.74
844.6974, 9301.826
845.1795, 8194.014
845.6616, 7276.080
846.1437, 6504.451
846.6259, 5816.211
847.1080, 5204.453
847.5901, 4654.253
848.0722, 4170.821
848.5543, 3740.617
849.0364, 3344.297
849.5186, 2970.085
850.0007, 2656.606
850.4828, 2410.765
850.9649, 2209.431
851.4470, 2032.714
851.9291, 1882.414
852.4113, 1762.201
852.8934, 1674.195
853.3755, 1597.453
853.8576, 1494.310
854.3397, 1405.412
854.8218, 1373.750
855.3040, 1430.172
855.7860, 1487.061
856.2681, 1533.087
856.7502, 1585.134
857.2324, 1649.951
857.7145, 1726.417
858.1966, 1847.481
858.6787, 2016.371
859.1608, 2215.427
859.6429, 2436.949
860.1251, 2675.534
860.6072, 2921.985
861.0893, 3170.257
861.5714, 3466.237
862.0535, 3837.461
862.5356, 4259.378
863.0178, 4716.899
863.4999, 5205.197
863.9820, 5725.522
864.4641, 6270.051
864.9462, 6849.542
865.4283, 7461.467
865.9105, 8106.075
866.3926, 8794.859
866.8747, 9523.196
867.3568, 10301.23
867.8389, 11117.20
868.3210, 11978.26
868.8032, 12903.55
869.2853, 13897.07
869.7674, 14891.71
870.2495, 15874.15
870.7316, 16908.50
871.2137, 18042.33
871.6959, 19258.35
872.1780, 20477.03
872.6601, 21698.22
873.1422, 22874.14
873.6243, 23997.46
874.1064, 25052.26
874.5886, 26074.99
875.0707, 27052.40
875.5528, 27809.12
876.0349, 28368.30
876.5170, 28619.69
876.9991, 28529.58
877.4813, 28098.24
877.9634, 27292.97
878.4455, 26108.56
878.9276, 24691.42
879.4097, 23050.70
879.8918, 21286.86
880.3740, 19491.38
880.8561, 17691.28
881.3382, 15968.90
881.8203, 14326.39
882.3024, 12801.94
882.7845, 11395.99
883.2667, 10122.81
883.7488, 9004.660
884.2309, 8051.886
884.7130, 7202.948
885.1951, 6448.847
885.6772, 5774.480
886.1594, 5129.676
886.6415, 4534.139
887.1236, 4023.124
887.6057, 3649.585
888.0878, 3313.634
888.5699, 2976.937
889.0521, 2651.438
889.5342, 2356.944
890.0163, 2088.840
890.4984, 1863.910
890.9805, 1689.933
891.4626, 1541.154
891.9448, 1370.660
892.4269, 1191.163
892.9090, 1044.848
893.3911, 946.0137
893.8732, 864.3804
894.3553, 782.1074
894.8375, 702.4912
895.3196, 631.2861
895.8017, 574.8442
896.2838, 513.0200
896.7659, 441.8555
897.2480, 371.6543
897.7302, 310.1030
898.2123, 257.9888
898.6944, 208.1172
899.1765, 160.3345
899.6586, 120.3711
900.1407, 96.45361
900.6229, 81.64404
901.1050, 74.50879
901.5871, 77.98047
902.0692, 63.61182
902.5513, 9.923828
903.0334, 36.66943
903.5156, 46.69824
903.9977, 23.88818
904.4798, 25.45020
904.9619, 51.06250
905.4440, 75.48730
905.9261, 73.02637
906.4083, 66.77881
906.8904, 89.70264
907.3725, 136.0730
907.8546, 161.8123
908.3367, 124.9404
908.8188, 99.52588
909.3010, 110.9819
909.7831, 149.7947
910.2652, 178.1252
910.7473, 195.8562
911.2294, 206.0283
911.7115, 210.6606
912.1937, 208.3154
912.6758, 189.0486
913.1579, 162.0627
913.6400, 148.3201
914.1221, 165.4631
914.6042, 184.3933
915.0864, 202.8479
915.5685, 217.2458
916.0506, 220.3096
916.5327, 211.0181
917.0148, 201.2461
917.4969, 192.6296
917.9790, 185.4805
918.4611, 179.4382
918.9432, 175.2534
919.4254, 175.8655
919.9075, 187.6660
920.3896, 189.3232
920.8717, 162.6418
921.3538, 131.0244
921.8359, 113.5820
922.3181, 113.6487
922.8002, 109.4768
923.2823, 100.3672
923.7644, 90.08643
924.2465, 81.43091
924.7286, 73.90503
925.2108, 68.30640
925.6929, 64.78369
926.1750, 55.42603
926.6571, 21.17749
927.1392, 4.029541
927.6213, 4.410889
928.1035, 42.77930
928.5856, 46.58521
929.0677, 10.19458
929.5498, 20.93066
930.0319, 14.72266
930.5140, 6.125732
930.9962, 0.8918460
931.4783, 27.55688
931.9604, 44.78516
932.4425, 22.52222
932.9246, 8.374268
933.4067, 26.62280
933.8889, 62.28516
934.3710, 82.88110
934.8531, 86.07544
935.3352, 88.32031
935.8173, 92.33765
936.2994, 100.3760
936.7816, 120.8372
937.2637, 146.8926
937.7458, 164.6536
938.2279, 163.7031
938.7100, 167.6162
939.1921, 193.3301
939.6743, 221.4832
940.1564, 232.7327
940.6385, 222.0322
941.1206, 222.1172
941.6027, 234.7917
942.0848, 253.6470
942.5670, 277.0667
943.0491, 300.5371
943.5312, 316.1682
944.0133, 323.0786
944.4954, 330.0325
944.9775, 341.1870
945.4597, 352.6484
945.9418, 362.9260
946.4239, 371.9480
946.9060, 380.4875
947.3881, 388.9934
947.8702, 391.0916
948.3524, 374.0823
948.8345, 355.8193
949.3166, 365.7434
949.7987, 396.1628
950.2808, 424.6475
950.7629, 442.6843
951.2451, 457.0796
951.7272, 466.2532
952.2093, 474.7549
952.6914, 494.5664
953.1735, 526.8008
953.6556, 546.1882
954.1378, 545.4954
954.6199, 536.8770
955.1020, 528.4807
955.5841, 523.0518
956.0662, 524.9915
956.5483, 537.8003
957.0305, 551.1655
957.5126, 562.9539
957.9947, 575.3254
958.4768, 591.8390
958.9589, 612.6665
959.4410, 620.0985
959.9232, 613.2424
960.4053, 610.8721
960.8874, 635.0911
961.3695, 665.4309
961.8516, 679.6575
962.3337, 677.5054
962.8159, 677.6790
963.2980, 687.9470
963.7801, 695.3713
964.2622, 694.8188
964.7443, 688.4117
965.2264, 684.4714
965.7086, 683.4202
966.1907, 687.5457
966.6728, 699.8596
967.1549, 710.4108
967.6370, 707.2310
968.1191, 697.6853
968.6013, 694.2100
969.0834, 705.7490
969.5655, 712.4175
970.0476, 713.1660
970.5297, 711.0111
971.0118, 708.1061
971.4940, 704.1846
971.9761, 697.0956
972.4582, 685.9067
972.9403, 681.2976
973.4224, 700.4800
973.9045, 722.1409
974.3867, 728.4838
974.8688, 716.9851
975.3509, 713.0563
975.8330, 720.6880
976.3151, 722.4346
976.7972, 702.6670
977.2794, 674.0791
977.7615, 671.4395
978.2436, 688.4150
978.7257, 700.1549
979.2078, 684.7698
979.6899, 671.3909
980.1720, 680.6320
980.6541, 695.9138
981.1362, 683.2196
981.6183, 635.3667
982.1005, 599.4763
982.5826, 583.5597
983.0647, 579.4550
983.5468, 583.3369
984.0289, 590.3547
984.5110, 592.2925
984.9932, 584.7761
985.4753, 579.2012
985.9574, 583.7417
986.4395, 586.0625
986.9216, 580.0708
987.4037, 565.4413
987.8859, 549.8347
988.3680, 532.3579
988.8501, 520.7969
989.3322, 526.0054
989.8143, 535.1868
990.2964, 533.5198
990.7786, 523.1997
991.2607, 514.2770
991.7428, 512.3784
992.2249, 507.1952
992.7070, 495.0477
993.1891, 479.1705
993.6713, 463.6580
994.1534, 449.8879
994.6355, 445.9642
995.1176, 456.2032
995.5997, 468.1445
996.0818, 476.9022
996.5640, 479.5808
997.0461, 471.2094
997.5282, 445.0854
998.0103, 433.5322
998.4924, 439.9093
998.9745, 448.1981
999.4567, 446.9399
999.9388, 439.3970
1000.421, 431.4684
1000.903, 423.7228
1001.385, 418.4521
1001.867, 421.1569
1002.349, 421.6104
1002.831, 413.2151
1003.314, 400.0250
1003.796, 392.5732
1004.278, 391.4655
1004.760, 388.0081
1005.242, 378.6648
1005.724, 370.1963
1006.206, 373.2688
1006.688, 381.1366
1007.171, 384.4622
1007.653, 378.9260
1008.135, 376.3409
1008.617, 378.4446
1009.099, 382.8311
1009.581, 390.2574
1010.063, 399.8506
1010.545, 398.6604
1011.027, 387.3402
1011.510, 371.2773
1011.992, 348.1661
1012.474, 326.3766
1012.956, 308.8223
1013.438, 297.5327
1013.920, 301.6609
1014.402, 331.4988
1014.884, 347.2416
1015.367, 337.5823
1015.849, 316.2716
1016.331, 300.5190
1016.813, 291.6190
1017.295, 295.3713
1017.777, 319.8547
1018.259, 334.0303
1018.741, 310.0461
1019.223, 284.7391
1019.706, 287.9460
1020.188, 323.4717
1020.670, 329.3828
1021.152, 304.4102
1021.634, 277.3687
1022.116, 266.7639
1022.598, 265.1218
1023.080, 266.3911
1023.563, 270.1216
1024.045, 275.2312
1024.527, 284.4512
1025.009, 290.1936
1025.491, 289.3010
1025.973, 286.4443
1026.455, 293.5046
1026.937, 306.4690
1027.419, 306.5215
1027.901, 286.9387
1028.384, 268.4485
1028.866, 267.0515
1029.348, 270.4541
1029.830, 268.0151
1030.312, 258.7173
1030.794, 253.5151
1031.276, 252.6997
1031.758, 256.1970
1032.241, 268.6355
1032.723, 281.9487
1033.205, 282.9524
1033.687, 274.6001
1034.169, 265.3931
1034.651, 251.0354
1035.133, 246.4431
1035.615, 258.7766
1036.098, 276.8142
1036.580, 285.0425
1037.062, 283.8743
1037.544, 274.6433
1038.026, 256.0132
1038.508, 244.6763
1038.990, 264.0098
1039.472, 287.8533
1039.954, 293.0676
1040.437, 277.2920
1040.919, 266.0962
1041.401, 260.3430
1041.883, 255.7803
1042.365, 247.8057
1042.847, 242.7249
1043.329, 259.2939
1043.811, 287.9048
1044.293, 305.1829
1044.776, 289.5957
1045.258, 279.3279
1045.740, 286.2964
1046.222, 296.7102
1046.704, 294.9871
1047.186, 281.8567
1047.668, 276.3945
1048.150, 279.7534
1048.633, 282.2561
1049.115, 265.7529
1049.597, 254.1340
1050.079, 274.5195
1050.561, 323.4011
1051.043, 347.1360
1051.525, 338.2900
1052.007, 323.5308
1052.490, 308.0034
1052.972, 295.2454
1053.454, 289.9146
1053.936, 291.8564
1054.418, 303.3416
1054.900, 334.6987
1055.382, 349.8882
1055.864, 321.7043
1056.346, 291.9795
1056.828, 291.5557
1057.311, 319.0784
1057.793, 334.0896
1058.275, 336.8770
1058.757, 332.9924
1059.239, 315.2732
1059.721, 302.4905
1060.203, 314.4653
1060.685, 342.1577
1061.168, 356.7097
1061.650, 353.5955
1062.132, 350.2976
1062.614, 350.6704
1063.096, 347.7136
1063.578, 332.7546
1064.060, 308.2612
1064.542, 274.5452
1065.025, 229.6277
1065.507, 195.4104
1065.989, 183.0654
1066.471, 178.6694
1066.953, 181.2034
1067.435, 187.3774
1067.917, 178.4600
1068.399, 156.8853
1068.881, 139.7881
1069.364, 140.7900
1069.846, 139.0708
1070.328, 114.3557
1070.810, 83.10010
1071.292, 69.01587
1071.774, 79.29126
1072.256, 78.53760
1072.738, 63.51147
1073.220, 50.06763
1073.703, 53.62549
1074.185, 66.31689
1074.667, 81.85913
1075.149, 98.42310
1075.631, 106.1721
1076.113, 100.4553
1076.595, 87.51562
1077.077, 63.70044
1077.559, 40.05615
1078.042, 43.44263
1078.524, 64.84326
1079.006, 73.27319
1079.488, 58.39697
1079.970, 47.73047
1080.452, 63.98438
1080.934, 81.61646
1081.416, 83.61401
1081.899, 70.36890
1082.381, 56.44995
1082.863, 41.98926
1083.345, 31.54468
1083.827, 26.73975
1084.309, 26.78760
1084.791, 34.78003
1085.273, 46.23486
1085.755, 52.42578
1086.238, 51.53906
1086.720, 46.47217
1087.202, 36.08545
1087.684, 25.60010
1088.166, 19.62305
1088.648, 17.80542
1089.130, 18.66089
1089.612, 19.73071
1090.094, 20.32666
1090.577, 19.17920
1091.059, 19.14868
1091.541, 22.10986
1092.023, 26.36255
1092.505, 25.37402
1092.987, 19.86230
1093.469, 19.03491
1093.951, 26.35010
1094.434, 32.73730
1094.916, 31.27954
1095.398, 27.85449
1095.880, 23.79150
1096.362, 18.18604
1096.844, 20.68481
1097.326, 31.96606
1097.808, 42.82837
1098.291, 51.62549
1098.773, 54.95142
1099.255, 39.19800
1099.737, 15.37085
1100.219, 5.046143
1100.701, 23.02661
1101.183, 36.76660
1101.665, 46.82324
1102.147, 49.04980
1102.630, 31.17896
1103.112, 5.117676
1103.594, 0.3242190
1104.076, 13.78613
1104.558, 25.02808
1105.040, 16.92261
1105.522, 13.79980
1106.004, 26.45679
1106.486, 45.24316
1106.969, 43.69580
1107.451, 25.35986
1107.933, 19.09912
1108.415, 33.25977
1108.897, 44.52271
1109.379, 30.20483
1109.861, 9.970947
1110.343, 0.8833010
1110.826, 1.943848
1111.308, 2.492188
1111.790, 11.75391
1112.272, 16.41333
1112.754, 10.17358
1113.236, 2.005371
1113.718, 1.402344
1114.200, 5.136719
1114.682, 8.300781
1115.165, 9.165771
1115.647, 11.65063
1116.129, 16.09741
1116.611, 20.83154
1117.093, 26.40063
1117.575, 30.41772
1118.057, 27.59253
1118.539, 19.01636
1119.021, 9.783203
1119.504, 1.523193
1119.986, 8.791992
1120.468, 10.83594
1120.950, 8.780273
1121.432, 0.6667480
1121.914, 10.20288
1122.396, 8.661377
1122.878, 7.603027
1123.361, 16.32593
1123.843, 5.237061
1124.325, 26.28979
1124.807, 32.31128
1125.289, 26.09912
1125.771, 13.92090
1126.253, 3.167480
1126.735, 9.345703
1127.218, 3.547363
1127.700, 18.15674
1128.182, 20.41772
1128.664, 17.62085
1129.146, 17.13306
1129.628, 19.55420
1130.110, 18.47510
1130.592, 12.90869
1131.074, 12.60181
1131.557, 30.35547
1132.039, 49.03735
1132.521, 45.93677
1133.003, 29.46265
1133.485, 15.38354
1133.967, 7.090088
1134.449, 0.2526860
1134.931, 7.062500
1135.413, 11.77271
1135.896, 10.88745
1136.378, 7.582764
1136.860, 10.94824
1137.342, 18.63281
1137.824, 17.03711
1138.306, 14.82031
1138.788, 32.73633
1139.270, 25.56128
1139.752, 7.242432
1140.235, 7.309326
1140.717, 14.44434
1141.199, 5.867188
1141.681, 19.14307
1142.163, 68.93970
1142.645, 217.8523
1143.127, 308.5010
1143.609, 254.5881
1144.092, 105.1396
1144.574, 19.51660
1145.056, 10.01172
1145.538, 26.65967
1146.020, 44.25854
1146.502, 48.15112
1146.984, 10.15210
1147.466, 30.24878
1147.948, 40.13037
1148.431, 19.43701
1148.913, 2.834717
1149.395, 9.734619
1149.877, 12.76489
1150.359, 4.940674
1150.841, 22.82715
1151.323, 25.45557
1151.805, 17.47900
1152.287, 3.424805
1152.770, 25.04346
1153.252, 19.95166
1153.734, 24.67773
1154.216, 63.59766
1154.698, 53.35767
1155.180, 24.54956
1155.662, 2.1240000E-02
1156.144, 15.68262
1156.627, 5.785156
1157.109, 49.18042
1157.591, 75.51636
1158.073, 59.13940
1158.555, 30.42822
1159.037, 18.43896
1159.519, 18.36816
1160.001, 28.12378
1160.484, 46.23853
1160.966, 52.15161
1161.448, 33.14331
1161.930, 20.56421
1162.412, 24.91943
1162.894, 33.55762
1163.376, 17.15527
1163.858, 9.739258
1164.340, 11.20581
1164.823, 25.77393
1165.305, 44.99341
1165.787, 16.90259
1166.269, 9.425049
1166.751, 11.82373
1167.233, 0.1062010
1167.715, 3.881592
1168.197, 18.00146
1168.679, 22.68213
1169.162, 6.095703
1169.644, 8.366455
1170.126, 10.76978
1170.608, 10.04272
1171.090, 11.24170
1171.572, 13.91577
1172.054, 15.40771
1172.536, 15.92407
1173.019, 17.02563
1173.501, 17.07373
1173.983, 20.71899
1174.465, 37.13257
1174.947, 52.76758
1175.429, 50.46069
1175.911, 30.96729
1176.393, 18.87183
1176.875, 16.27661
1177.358, 41.68213
1177.840, 164.6213
1178.322, 258.9080
1178.804, 220.6152
1179.286, 115.7500
1179.768, 62.70947
1180.250, 63.11841
1180.732, 55.70923
1181.214, 33.04102
1181.697, 16.91504
1182.179, 32.62891
1182.661, 52.91455
1183.143, 55.04541
1183.625, 44.00977
1184.107, 41.79614
1184.589, 49.15479
1185.071, 54.69995
1185.554, 56.17627
1186.036, 53.21118
1186.518, 39.49585
1187.000, 25.51514
1187.482, 21.88379
1187.964, 28.62402
1188.446, 37.83081
1188.928, 50.35791
1189.411, 58.99243
1189.893, 60.93677
1190.375, 59.28784
1190.857, 55.62817
1191.339, 51.40674
1191.821, 49.26880
1192.303, 52.40112
1192.785, 44.90454
1193.267, 26.03564
1193.750, 14.45410
1194.232, 23.08813
1194.714, 38.90674
1195.196, 58.07178
1195.678, 75.76245
1196.160, 80.92578
1196.642, 68.84277
1197.124, 63.40454
1197.606, 68.51855
1198.089, 70.96118
1198.571, 57.34692
1199.053, 40.39429
1199.535, 36.68823
1200.017, 41.51074
1200.499, 44.27368
1200.981, 40.31689
1201.463, 42.93555
1201.945, 54.99097
1202.428, 63.41528
1202.910, 49.32617
1203.392, 28.89722
1203.874, 25.70166
1204.356, 36.51074
1204.838, 45.15259
1205.320, 43.85864
1205.802, 48.30151
1206.285, 62.54736
1206.767, 74.11133
1207.249, 65.89087
1207.731, 48.29590
1208.213, 33.13550
1208.695, 21.52637
1209.177, 18.95752
1209.659, 30.96387
1210.141, 37.20557
1210.624, 30.52344
1211.106, 23.90039
1211.588, 37.87500
1212.070, 58.44727
1212.552, 65.36621
1213.034, 56.31470
1213.516, 49.50146
1213.998, 37.92236
1214.480, 52.82446
1214.963, 110.5083
1215.445, 179.2917
1215.927, 230.0425
1216.409, 252.5505
1216.891, 217.0525
1217.373, 108.2944
1217.855, 49.55200
1218.337, 64.91333
1218.820, 84.02051
1219.302, 80.28735
1219.784, 67.18652
1220.266, 61.84302
1220.748, 64.41162
1221.230, 79.76465
1221.712, 118.0610
1222.194, 122.2925
1222.677, 78.14355
1223.159, 40.25684
1223.641, 39.20825
1224.123, 54.40503
1224.605, 55.78857
1225.087, 50.31909
1225.569, 48.65405
1226.051, 57.50195
1226.533, 57.30762
1227.016, 46.44116
1227.498, 34.33301
1227.980, 21.61133
1228.462, 15.13501
1228.944, 33.61304
1229.426, 63.77026
1229.908, 78.62744
1230.390, 62.45728
1230.872, 49.64160
1231.355, 40.16895
1231.837, 34.60059
1232.319, 36.34497
1232.801, 40.27100
1233.283, 34.54004
1233.765, 25.61816
1234.247, 30.58594
1234.729, 61.11670
1235.212, 81.28735
1235.694, 88.94336
1236.176, 89.52588
1236.658, 86.04883
1237.140, 79.12305
1237.622, 66.80298
1238.104, 51.70728
1238.586, 41.71069
1239.068, 38.91211
1239.551, 35.30444
1240.033, 29.88477
1240.515, 26.71387
1240.997, 31.21313
1241.479, 37.74023
1241.961, 41.33374
1242.443, 41.75806
1242.925, 38.71729
1243.407, 30.45898
1243.890, 28.23413
1244.372, 34.04175
1244.854, 41.65674
1245.336, 44.94507
1245.818, 46.96655
1246.300, 49.65356
1246.782, 53.71899
1247.264, 63.50806
1247.747, 81.20752
1248.229, 84.28516
1248.711, 67.09033
1249.193, 48.08521
1249.675, 19.84473
1250.157, 14.34766
1250.639, 33.38110
1251.121, 38.12427
1251.604, 14.27979
1252.086, 7.172119
1252.568, 0.9797360
1253.050, 10.34082
1253.532, 21.37524
1254.014, 22.73145
1254.496, 8.425049
1254.978, 9.572266
1255.460, 24.46875
1255.943, 29.62085
1256.425, 24.91333
1256.907, 25.26294
1257.389, 32.51538
1257.871, 39.36597
1258.353, 40.35913
1258.835, 39.38184
1259.317, 37.71753
1259.799, 36.53931
1260.281, 43.45483
1260.764, 56.08960
1261.246, 59.37817
1261.728, 47.15259
1262.210, 35.80444
1262.692, 36.94189
1263.174, 37.77881
1263.656, 30.29077
1264.138, 18.85229
1264.621, 19.23486
1265.103, 28.99658
1265.585, 40.33496
1266.067, 52.43140
1266.549, 60.61426
1267.031, 59.20386
1267.513, 58.59717
1267.995, 63.68115
1268.478, 72.54419
1268.960, 84.80322
1269.442, 96.08228
1269.924, 92.89624
1270.406, 62.51807
1270.888, 47.24707
1271.370, 56.66748
1271.852, 72.92773
1272.334, 92.20679
1272.817, 106.9229
1273.299, 93.54028
1273.781, 61.99951
1274.263, 50.79492
1274.745, 70.38306
1275.227, 71.67310
1275.709, 43.54126
1276.191, 17.95972
1276.673, 25.64697
1277.156, 43.66309
1277.638, 45.13721
1278.120, 38.07129
1278.602, 36.36890
1279.084, 45.86743
1279.566, 44.42725
1280.048, 30.34790
1280.530, 17.55151
1281.013, 11.76538
1281.495, 12.90942
1281.977, 30.76855
1282.459, 50.04883
1282.941, 45.91553
1283.423, 12.97437
1283.905, 1.402832
1284.387, 11.16064
1284.870, 19.16895
1285.352, 7.852783
1285.834, 3.152344
1286.316, 0.7812500
1286.798, 11.21191
1287.280, 18.89941
1287.762, 23.58301
1288.244, 30.09668
1288.726, 37.33667
1289.208, 37.24585
1289.691, 15.13867
1290.173, 0.8227540
1290.655, 5.806641
1291.137, 16.77661
1291.619, 22.66089
1292.101, 18.50952
1292.583, 14.85815
1293.065, 9.711914
1293.548, 9.647705
1294.030, 21.69873
1294.512, 31.10791
1294.994, 34.94971
1295.476, 34.12720
1295.958, 27.68066
1296.440, 17.62573
1296.922, 5.767334
1297.405, 0.0000000E+00
##END=



