##NAMES=Tyrolite
##RRUFFID=R060264
##IDEAL CHEMISTRY=Ca_2_Cu^2+^_9_(As^5+^O_4_)_4_(CO_3_)(OH)_8_&#183;11H_2_O
##LOCALITY=Lovelock mine, Bolivia, Cottonwood Canyon, Churchill County, Nevada, USA
##OWNER=RRUFF
##SOURCE=Michael Scott
##DESCRIPTION=Greenish-blue flat bladed crystals in radial aggregates
##STATUS=The identification of this mineral has been confirmed by single-crystal X-ray diffraction.
##URL=rruff.info/R060264
90.49219, 0.0000000E+00
90.97430, 2.8780000E-02
91.45642, 1.3734000E-02
91.93854, 0.7579770
92.42065, 1.701378
92.90277, 2.299018
93.38489, 2.262817
93.86700, 1.948557
94.34912, 1.579696
94.83124, 1.196131
95.31335, 1.125844
95.79547, 1.734479
96.27759, 2.863747
96.75970, 3.884879
97.24182, 4.751448
97.72394, 5.367031
98.20605, 5.541687
98.68817, 5.229265
99.17029, 5.127694
99.65240, 5.895193
100.1345, 7.661318
100.6166, 9.057876
101.0988, 10.00058
101.5809, 10.51329
102.0630, 10.50176
102.5451, 9.727216
103.0272, 8.886744
103.5093, 8.565096
103.9915, 9.110409
104.4736, 9.767689
104.9557, 10.38454
105.4378, 11.13469
105.9199, 11.56347
106.4020, 11.41351
106.8842, 10.90748
107.3663, 10.84796
107.8484, 11.29650
108.3305, 11.60809
108.8126, 11.56336
109.2947, 10.37147
109.7769, 10.16096
110.2590, 12.14619
110.7411, 16.14750
111.2232, 19.13375
111.7053, 20.43102
112.1874, 21.37233
112.6696, 21.52981
113.1517, 23.85627
113.6338, 25.39016
114.1159, 24.12743
114.5980, 20.24955
115.0801, 17.37041
115.5623, 17.28061
116.0444, 18.03091
116.5265, 18.11142
117.0086, 16.19264
117.4907, 14.36726
117.9728, 13.61279
118.4550, 13.99051
118.9371, 14.21631
119.4192, 13.79655
119.9013, 12.88876
120.3834, 11.67901
120.8655, 9.748815
121.3477, 7.852819
121.8298, 6.649104
122.3119, 6.297409
122.7940, 5.999853
123.2761, 5.049438
123.7582, 3.715837
124.2404, 2.600128
124.7225, 2.136768
125.2046, 2.030911
125.6867, 1.927411
126.1688, 1.777049
126.6509, 1.695556
127.1331, 1.533826
127.6152, 1.496684
128.0973, 1.394631
128.5794, 1.278100
129.0615, 1.042119
129.5436, 0.3568310
130.0258, 1.101687
130.5079, 2.766396
130.9900, 3.526074
131.4721, 3.380524
131.9542, 3.082196
132.4363, 3.551839
132.9185, 4.604272
133.4006, 4.883091
133.8827, 3.548479
134.3648, 1.251700
134.8469, 0.3722850
135.3290, 1.121712
135.8112, 2.364374
136.2933, 2.987463
136.7754, 2.994865
137.2575, 2.386932
137.7396, 1.135271
138.2217, 0.7246020
138.7039, 3.358290
139.1860, 7.139441
139.6681, 11.10864
140.1502, 13.68917
140.6323, 14.39375
141.1144, 15.23450
141.5966, 17.27219
142.0787, 21.05999
142.5608, 23.37021
143.0429, 23.61184
143.5250, 22.71316
144.0071, 22.82589
144.4893, 24.46804
144.9714, 26.27029
145.4535, 27.45547
145.9356, 27.05766
146.4177, 28.12490
146.8998, 31.76121
147.3820, 37.03603
147.8641, 40.13806
148.3462, 39.18830
148.8283, 38.00541
149.3104, 38.76529
149.7925, 42.77357
150.2747, 47.03773
150.7568, 51.58342
151.2389, 56.35187
151.7210, 60.58501
152.2031, 64.58582
152.6852, 67.82865
153.1674, 70.03204
153.6495, 69.29494
154.1316, 69.46856
154.6137, 71.61469
155.0958, 75.78839
155.5779, 79.17162
156.0601, 81.02204
156.5422, 82.13984
157.0243, 83.17865
157.5064, 84.15350
157.9885, 85.15451
158.4706, 86.18156
158.9528, 87.22478
159.4349, 88.39187
159.9170, 89.76785
160.3991, 91.26562
160.8812, 92.78419
161.3633, 94.56518
161.8455, 96.14452
162.3276, 96.94154
162.8097, 96.50462
163.2918, 97.21121
163.7739, 100.9208
164.2560, 106.0903
164.7382, 109.5642
165.2203, 111.1489
165.7024, 112.0403
166.1845, 112.7169
166.6666, 113.2267
167.1487, 113.6157
167.6309, 114.0054
168.1130, 114.3268
168.5951, 114.4022
169.0772, 114.0138
169.5593, 113.4180
170.0414, 112.9021
170.5236, 112.6947
171.0057, 112.1783
171.4878, 110.7016
171.9699, 108.5048
172.4520, 106.3252
172.9341, 104.9335
173.4163, 103.6558
173.8984, 101.5595
174.3805, 97.94132
174.8626, 94.25893
175.3447, 91.80831
175.8268, 90.45158
176.3090, 89.57973
176.7911, 89.26031
177.2732, 89.06257
177.7553, 88.18033
178.2374, 85.88065
178.7195, 83.38985
179.2017, 82.69923
179.6838, 83.61132
180.1659, 84.21909
180.6480, 82.36855
181.1301, 79.07542
181.6122, 76.74180
182.0944, 76.40041
182.5765, 77.13954
183.0586, 77.52187
183.5407, 77.53362
184.0228, 77.39089
184.5049, 77.33914
184.9871, 77.30460
185.4692, 76.99287
185.9513, 76.15486
186.4334, 75.03767
186.9155, 74.23884
187.3976, 73.75303
187.8798, 73.28547
188.3619, 72.79771
188.8440, 72.26851
189.3261, 71.18455
189.8082, 69.01024
190.2903, 66.10179
190.7725, 63.90276
191.2546, 62.51347
191.7367, 61.61905
192.2188, 61.05052
192.7009, 60.68678
193.1830, 59.72423
193.6652, 57.25491
194.1473, 53.74679
194.6294, 52.40069
195.1115, 53.67418
195.5936, 55.77493
196.0757, 56.31406
196.5579, 55.18105
197.0400, 53.62488
197.5221, 51.93476
198.0042, 50.14714
198.4863, 48.85923
198.9684, 48.19699
199.4506, 47.76633
199.9327, 46.86002
200.4148, 45.38736
200.8969, 44.24439
201.3790, 44.07100
201.8611, 44.92570
202.3433, 44.91647
202.8254, 43.93175
203.3075, 42.25897
203.7896, 40.10002
204.2717, 37.21272
204.7538, 34.99391
205.2360, 34.42143
205.7181, 35.78699
206.2002, 35.98206
206.6823, 34.67374
207.1644, 32.59946
207.6465, 31.11435
208.1287, 30.34773
208.6108, 29.74581
209.0929, 29.06164
209.5750, 28.25331
210.0571, 27.65187
210.5392, 27.41634
211.0214, 27.25138
211.5035, 26.43797
211.9856, 24.73036
212.4677, 23.07545
212.9498, 21.94048
213.4319, 21.47578
213.9140, 20.92117
214.3962, 20.24934
214.8783, 19.49448
215.3604, 18.73528
215.8425, 17.96375
216.3246, 17.19356
216.8067, 16.40721
217.2889, 15.56633
217.7710, 14.86255
218.2531, 14.38431
218.7352, 13.99701
219.2173, 13.25838
219.6994, 11.74199
220.1816, 10.68611
220.6637, 10.92387
221.1458, 13.42422
221.6279, 14.30952
222.1100, 12.83775
222.5921, 10.00440
223.0743, 8.436630
223.5564, 8.674133
224.0385, 9.249237
224.5206, 9.547501
225.0027, 9.654526
225.4848, 9.216545
225.9670, 7.774628
226.4491, 5.936165
226.9312, 5.464264
227.4133, 7.319557
227.8954, 8.984680
228.3775, 9.067162
228.8597, 6.445450
229.3418, 5.080460
229.8239, 5.553741
230.3060, 7.159195
230.7881, 7.923279
231.2702, 7.592102
231.7524, 6.809464
232.2345, 5.705170
232.7166, 3.613083
233.1987, 2.798950
233.6808, 3.881714
234.1629, 6.080688
234.6451, 7.294495
235.1272, 6.961548
235.6093, 6.469284
236.0914, 6.460678
236.5735, 7.286148
237.0556, 7.810135
237.5378, 8.013519
238.0199, 7.929459
238.5020, 7.599884
238.9841, 6.843475
239.4662, 6.113235
239.9483, 5.556320
240.4305, 5.037399
240.9126, 5.049469
241.3947, 5.874908
241.8768, 7.140121
242.3589, 7.912033
242.8410, 7.962173
243.3232, 7.864136
243.8053, 7.894287
244.2874, 8.300217
244.7695, 8.155945
245.2516, 6.979568
245.7337, 5.440781
246.2159, 5.206741
246.6980, 7.392014
247.1801, 9.130051
247.6622, 9.144714
248.1443, 6.534225
248.6264, 4.710373
249.1086, 3.666946
249.5907, 3.395935
250.0728, 4.005814
250.5549, 6.061188
251.0370, 8.047638
251.5191, 9.402588
252.0013, 9.986496
252.4834, 10.36266
252.9655, 10.57057
253.4476, 10.53899
253.9297, 9.965652
254.4118, 8.192001
254.8940, 7.116135
255.3761, 7.634613
255.8582, 10.33479
256.3403, 12.29703
256.8224, 13.41063
257.3046, 13.87898
257.7867, 13.89720
258.2688, 13.11659
258.7509, 12.63210
259.2330, 12.86195
259.7151, 13.93367
260.1973, 15.03253
260.6794, 16.26611
261.1615, 17.40211
261.6436, 18.01282
262.1257, 17.90482
262.6078, 17.75652
263.0900, 17.74266
263.5721, 17.86415
264.0542, 18.13573
264.5363, 18.63373
265.0184, 19.19051
265.5005, 19.62561
265.9827, 19.93387
266.4648, 20.12024
266.9469, 20.22496
267.4290, 20.25348
267.9111, 19.84512
268.3932, 18.79117
268.8754, 17.62451
269.3575, 17.03316
269.8396, 17.22060
270.3217, 17.19650
270.8038, 16.56458
271.2859, 15.38222
271.7681, 14.98732
272.2502, 15.69199
272.7323, 16.53938
273.2144, 16.37259
273.6965, 14.92934
274.1786, 13.94571
274.6608, 14.01628
275.1429, 14.91513
275.6250, 14.90970
276.1071, 13.79343
276.5892, 12.37144
277.0714, 11.42271
277.5535, 11.00594
278.0356, 10.46910
278.5177, 9.635391
278.9998, 8.606018
279.4819, 7.735672
279.9641, 6.980591
280.4462, 6.544037
280.9283, 6.806076
281.4104, 7.828384
281.8925, 8.456589
282.3746, 8.406616
282.8568, 7.916229
283.3389, 7.646179
283.8210, 7.629013
284.3031, 7.644180
284.7852, 7.538101
285.2673, 7.312561
285.7495, 6.876831
286.2316, 6.180374
286.7137, 5.521698
287.1958, 5.849747
287.6779, 7.199875
288.1600, 7.959686
288.6422, 6.395004
289.1243, 2.927811
289.6064, 1.022263
290.0885, 1.185959
290.5706, 2.339020
291.0527, 2.743484
291.5349, 2.478897
292.0170, 2.411285
292.4991, 3.242599
292.9812, 4.672592
293.4633, 5.611359
293.9454, 5.947067
294.4276, 5.926590
294.9097, 5.677734
295.3918, 5.270340
295.8739, 4.992554
296.3560, 5.043579
296.8381, 5.370132
297.3203, 5.860779
297.8024, 6.564240
298.2845, 7.082153
298.7666, 6.768478
299.2487, 5.858292
299.7308, 5.090500
300.2130, 4.849014
300.6951, 4.947205
301.1772, 5.208786
301.6593, 5.633224
302.1414, 5.837082
302.6235, 5.297409
303.1057, 4.300934
303.5878, 3.427582
304.0699, 2.827606
304.5520, 2.472778
305.0341, 2.335098
305.5162, 2.412582
305.9984, 2.694351
306.4805, 3.462112
306.9626, 4.353348
307.4447, 4.811951
307.9268, 4.453476
308.4089, 3.935516
308.8911, 3.939316
309.3732, 4.344162
309.8553, 4.521011
310.3374, 3.740906
310.8195, 2.779953
311.3016, 2.486328
311.7838, 3.310608
312.2659, 4.304642
312.7480, 4.889359
313.2301, 5.125122
313.7122, 5.148346
314.1943, 5.010391
314.6765, 4.696396
315.1586, 4.088303
315.6407, 2.998398
316.1228, 2.232651
316.6049, 2.375473
317.0870, 3.018906
317.5692, 3.584396
318.0513, 3.816345
318.5334, 3.987244
319.0155, 4.293945
319.4976, 4.806290
319.9797, 5.058304
320.4619, 4.745728
320.9440, 4.135345
321.4261, 3.534073
321.9082, 2.508438
322.3903, 1.981186
322.8724, 2.578171
323.3546, 4.336975
323.8367, 5.513046
324.3188, 5.163620
324.8009, 4.446899
325.2830, 4.251297
325.7651, 5.472290
326.2473, 6.350449
326.7294, 6.364899
327.2115, 5.666107
327.6936, 5.444580
328.1757, 6.108887
328.6578, 7.021240
329.1400, 7.879532
329.6221, 8.959244
330.1042, 9.593063
330.5863, 9.574402
331.0684, 9.098129
331.5505, 8.743546
332.0327, 8.632355
332.5148, 8.491638
332.9969, 8.218185
333.4790, 7.807205
333.9611, 7.276459
334.4432, 6.565842
334.9254, 5.765686
335.4075, 5.042847
335.8896, 4.425934
336.3717, 3.820343
336.8538, 3.221237
337.3359, 2.633743
337.8180, 1.935028
338.3001, 1.069016
338.7823, 0.1828460
339.2644, 0.5143740
339.7465, 0.9687500
340.2286, 1.530533
340.7107, 2.481186
341.1928, 3.655777
341.6750, 3.555634
342.1571, 1.825180
342.6392, 0.1425320
343.1213, 2.4673000E-02
343.6034, 1.495132
344.0855, 3.105560
344.5677, 4.793762
345.0498, 6.297501
345.5319, 6.844604
346.0140, 6.415192
346.4961, 5.609711
346.9782, 4.585495
347.4604, 3.439453
347.9425, 2.698929
348.4246, 2.414093
348.9067, 2.504883
349.3888, 3.206955
349.8709, 4.344254
350.3531, 4.942841
350.8352, 3.910706
351.3173, 2.139359
351.7994, 1.615082
352.2815, 2.514984
352.7636, 3.326462
353.2458, 2.126846
353.7279, 0.2481990
354.2100, 1.985382
354.6921, 1.978683
355.1742, 1.284668
355.6563, 0.8302000
356.1385, 0.6269230
356.6206, 0.7716060
357.1027, 1.610168
357.5848, 2.729767
358.0669, 3.653183
358.5490, 4.187454
359.0312, 4.590134
359.5133, 5.171310
359.9954, 5.784897
360.4775, 5.992371
360.9596, 4.989365
361.4417, 3.895050
361.9239, 3.563751
362.4060, 4.425934
362.8881, 5.170761
363.3702, 5.239319
363.8523, 4.894852
364.3344, 4.541138
364.8166, 4.537857
365.2987, 4.323471
365.7808, 3.367249
366.2629, 1.442856
366.7450, 0.5328520
367.2271, 2.307343
367.7093, 4.564713
368.1914, 5.369537
368.6735, 2.705414
369.1556, 0.6286470
369.6377, 5.8166999E-02
370.1198, 0.4702760
370.6020, 0.7925420
371.0841, 0.8307500
371.5662, 0.7360990
372.0483, 0.5732270
372.5304, 0.2433780
373.0125, 2.5180001E-03
373.4947, 0.3099210
373.9768, 0.4736790
374.4589, 0.2180940
374.9410, 2.463821
375.4231, 4.122711
375.9052, 4.167114
376.3874, 2.310791
376.8695, 1.076401
377.3516, 0.4890750
377.8337, 0.4642640
378.3158, 0.9857640
378.7979, 2.118835
379.2801, 3.381622
379.7622, 4.854187
380.2443, 6.336258
380.7264, 6.703583
381.2085, 5.779388
381.6906, 4.971024
382.1728, 5.936615
382.6549, 8.305267
383.1370, 9.468262
383.6191, 8.585144
384.1012, 7.042572
384.5833, 7.497482
385.0655, 9.670502
385.5476, 11.43912
386.0297, 11.04976
386.5118, 9.571503
386.9939, 8.978790
387.4760, 9.499313
387.9582, 10.44069
388.4403, 11.60425
388.9224, 12.70456
389.4045, 13.15125
389.8866, 11.76572
390.3687, 10.27901
390.8509, 10.40649
391.3330, 12.02058
391.8151, 13.62993
392.2972, 14.61729
392.7793, 15.03731
393.2614, 14.87517
393.7436, 13.53290
394.2257, 12.46069
394.7078, 12.37839
395.1899, 13.04807
395.6720, 13.84566
396.1541, 14.58464
396.6363, 15.35536
397.1184, 16.26369
397.6005, 17.45598
398.0826, 18.41161
398.5647, 19.03580
399.0468, 19.34457
399.5290, 19.45224
400.0111, 18.89424
400.4932, 18.83690
400.9753, 19.61551
401.4574, 21.14319
401.9395, 22.02364
402.4217, 21.64433
402.9038, 21.26845
403.3859, 21.92906
403.8680, 24.49866
404.3501, 26.19745
404.8322, 26.54556
405.3144, 26.05922
405.7965, 25.92944
406.2786, 26.05769
406.7607, 26.73293
407.2428, 28.33838
407.7249, 30.90733
408.2071, 32.65279
408.6892, 33.60085
409.1713, 34.11429
409.6534, 34.28349
410.1355, 34.05943
410.6176, 34.18967
411.0998, 35.19151
411.5819, 36.75522
412.0640, 37.72032
412.5461, 38.05675
413.0282, 38.73012
413.5103, 41.04967
413.9925, 44.17329
414.4746, 46.22769
414.9567, 46.64415
415.4388, 46.78093
415.9209, 48.29305
416.4030, 50.66368
416.8852, 52.65414
417.3673, 53.76762
417.8494, 54.13055
418.3315, 53.69325
418.8136, 52.44920
419.2957, 50.99033
419.7779, 49.00514
420.2600, 47.24654
420.7421, 46.50366
421.2242, 49.25458
421.7063, 50.68941
422.1884, 48.39067
422.6706, 43.32117
423.1527, 39.03342
423.6348, 36.71361
424.1169, 35.10205
424.5990, 33.69673
425.0811, 32.83514
425.5633, 31.48026
426.0454, 29.37964
426.5275, 26.87555
427.0096, 24.27933
427.4917, 20.98961
427.9738, 18.61441
428.4560, 17.82864
428.9381, 18.50966
429.4202, 18.16168
429.9023, 16.45834
430.3844, 14.32503
430.8665, 12.39754
431.3487, 10.68512
431.8308, 9.032104
432.3129, 7.345612
432.7950, 5.897324
433.2771, 5.411362
433.7592, 5.917328
434.2414, 6.687347
434.7235, 7.741272
435.2056, 8.829071
435.6877, 8.512711
436.1698, 6.652237
436.6519, 5.118896
437.1341, 6.667145
437.6162, 10.05711
438.0983, 11.94798
438.5804, 10.73845
439.0625, 8.657990
439.5446, 8.033524
440.0268, 8.674377
440.5089, 9.882980
440.9910, 12.27031
441.4731, 14.44872
441.9552, 14.80070
442.4373, 12.72383
442.9195, 11.20456
443.4016, 12.16925
443.8837, 14.41585
444.3658, 16.48286
444.8479, 18.07927
445.3300, 19.29102
445.8122, 19.94809
446.2943, 20.13023
446.7764, 20.56590
447.2585, 21.04401
447.7406, 22.04199
448.2227, 23.90251
448.7049, 27.38348
449.1870, 30.22032
449.6691, 32.19237
450.1512, 33.61705
450.6333, 34.88014
451.1154, 35.75902
451.5976, 37.00922
452.0797, 39.05182
452.5618, 41.78671
453.0439, 43.51376
453.5260, 43.99423
454.0081, 44.11754
454.4903, 44.37537
454.9724, 44.77197
455.4545, 45.92931
455.9366, 48.12294
456.4187, 50.67075
456.9008, 52.48285
457.3830, 53.60413
457.8651, 54.22316
458.3472, 54.37070
458.8293, 54.11520
459.3114, 53.31889
459.7935, 52.00375
460.2757, 51.03738
460.7578, 51.44177
461.2399, 52.54257
461.7220, 53.46225
462.2041, 54.19084
462.6862, 54.32086
463.1684, 53.02560
463.6505, 50.90787
464.1326, 49.39775
464.6147, 49.79018
465.0968, 50.33151
465.5789, 50.20906
466.0611, 49.33911
466.5432, 47.96559
467.0253, 45.57339
467.5074, 43.00194
467.9895, 40.96191
468.4716, 39.42319
468.9538, 38.49796
469.4359, 38.64658
469.9180, 39.41196
470.4001, 39.28239
470.8822, 37.89748
471.3643, 36.26271
471.8465, 34.75375
472.3286, 33.38501
472.8107, 31.96786
473.2928, 30.45361
473.7749, 29.06378
474.2570, 28.32773
474.7392, 28.23723
475.2213, 27.34381
475.7034, 24.92453
476.1855, 22.02022
476.6676, 21.08325
477.1497, 21.91330
477.6319, 22.65884
478.1140, 22.01295
478.5961, 20.61983
479.0782, 19.53122
479.5603, 18.82706
480.0424, 18.25281
480.5246, 17.57820
481.0067, 16.90871
481.4888, 16.39314
481.9709, 16.12973
482.4530, 15.96365
482.9352, 15.86728
483.4173, 15.81279
483.8994, 15.71416
484.3815, 15.57254
484.8636, 15.35284
485.3457, 14.93729
485.8279, 14.13670
486.3100, 13.82809
486.7921, 14.55374
487.2742, 15.54810
487.7563, 16.14896
488.2384, 16.18427
488.7206, 16.09138
489.2027, 15.74858
489.6848, 15.33977
490.1669, 15.65888
490.6490, 16.96515
491.1311, 18.23799
491.6133, 18.86957
492.0954, 18.89130
492.5775, 19.39909
493.0596, 20.43456
493.5417, 21.59178
494.0238, 22.56934
494.5060, 23.36705
494.9881, 23.84309
495.4702, 23.68199
495.9523, 23.67911
496.4344, 25.35191
496.9165, 28.18867
497.3987, 30.48428
497.8808, 30.82732
498.3629, 30.47754
498.8450, 30.38478
499.3271, 30.59627
499.8092, 31.68054
500.2914, 34.68700
500.7735, 38.14618
501.2556, 40.79095
501.7377, 41.84483
502.2198, 42.61186
502.7019, 43.21977
503.1841, 43.74104
503.6662, 44.37311
504.1483, 45.14648
504.6304, 46.05048
505.1125, 47.15089
505.5946, 48.46031
506.0768, 49.35033
506.5589, 49.49792
507.0410, 49.77147
507.5231, 51.05142
508.0052, 53.54774
508.4873, 55.04732
508.9695, 55.19218
509.4516, 54.55205
509.9337, 53.77411
510.4158, 52.86125
510.8979, 52.39954
511.3800, 52.72482
511.8622, 53.56607
512.3443, 54.53300
512.8264, 55.64168
513.3085, 56.69868
513.7906, 57.90924
514.2728, 58.83224
514.7549, 58.80104
515.2370, 57.48499
515.7191, 55.85004
516.2012, 54.22350
516.6833, 52.71741
517.1655, 51.47972
517.6476, 50.67026
518.1297, 50.18416
518.6118, 50.31386
519.0939, 50.82678
519.5760, 50.19878
520.0582, 47.10426
520.5403, 43.89000
521.0224, 41.63684
521.5045, 40.80913
521.9866, 39.40948
522.4688, 36.94437
522.9509, 34.38657
523.4330, 33.07347
523.9151, 33.28757
524.3972, 33.24969
524.8793, 32.60182
525.3615, 31.47127
525.8436, 29.96225
526.3257, 28.07327
526.8078, 26.44899
527.2899, 25.78751
527.7720, 25.57716
528.2542, 24.59370
528.7363, 22.77821
529.2184, 20.78210
529.7005, 18.81892
530.1826, 17.13820
530.6647, 16.17235
531.1469, 16.55063
531.6290, 16.84785
532.1111, 16.04861
532.5932, 14.61459
533.0753, 13.49431
533.5574, 13.29442
534.0396, 13.11972
534.5217, 12.63199
535.0038, 11.81136
535.4859, 11.04503
535.9680, 10.15527
536.4501, 9.484161
536.9323, 9.320557
537.4144, 10.04478
537.8965, 10.19681
538.3786, 9.658585
538.8607, 8.681564
539.3428, 7.438248
539.8250, 5.853241
540.3071, 4.940979
540.7892, 5.279953
541.2713, 6.265572
541.7534, 6.374283
542.2355, 5.668953
542.7177, 4.834488
543.1998, 4.196037
543.6819, 3.738724
544.1640, 3.483582
544.6461, 3.438522
545.1282, 3.409004
545.6104, 3.564911
546.0925, 3.542259
546.5746, 2.891960
547.0567, 0.8367920
547.5388, 0.9469150
548.0209, 1.811127
548.5031, 2.003426
548.9852, 2.093536
549.4673, 2.404724
549.9494, 2.352249
550.4315, 1.633438
550.9136, 0.2530440
551.3958, 0.7883990
551.8779, 1.662071
552.3600, 1.920235
552.8421, 0.9532240
553.3242, 1.471397
553.8063, 2.846794
554.2885, 2.992134
554.7706, 2.321968
555.2527, 0.7806470
555.7348, 1.352951
556.2169, 2.175987
556.6990, 0.5140150
557.1812, 1.950584
557.6633, 2.869972
558.1454, 2.520714
558.6275, 1.939537
559.1096, 1.572578
559.5917, 1.317307
560.0739, 1.103165
560.5560, 0.9254910
561.0381, 0.7839200
561.5202, 0.8316040
562.0023, 0.8201980
562.4844, 0.5351410
562.9666, 0.6271670
563.4487, 1.175003
563.9308, 0.5608290
564.4129, 0.4941100
564.8950, 0.8118740
565.3771, 0.1351170
565.8593, 0.6261060
566.3414, 0.1065670
566.8235, 1.141335
567.3056, 1.936111
567.7877, 2.269508
568.2698, 2.162239
568.7520, 1.325783
569.2341, 2.1698000E-02
569.7162, 0.7105410
570.1983, 0.8101500
570.6804, 0.6874540
571.1625, 0.6670990
571.6447, 0.7018970
572.1268, 0.7015460
572.6089, 0.5954510
573.0910, 0.5545880
573.5731, 0.9674990
574.0552, 1.482491
574.5374, 1.484230
575.0195, 0.2693250
575.5016, 1.507431
575.9837, 1.034149
576.4658, 0.9694750
576.9479, 2.035080
577.4301, 1.529495
577.9122, 0.7606660
578.3943, 0.2074280
578.8764, 0.1508260
579.3585, 9.6496999E-02
579.8406, 0.4878230
580.3228, 1.214722
580.8049, 1.739853
581.2870, 2.065063
581.7691, 2.147026
582.2512, 1.919556
582.7333, 1.579803
583.2155, 1.354927
583.6975, 1.256546
584.1796, 1.309204
584.6617, 1.653374
585.1439, 2.062874
585.6260, 2.257256
586.1081, 2.295570
586.5902, 2.507805
587.0723, 3.389717
587.5544, 4.234329
588.0366, 4.587570
588.5187, 4.262535
589.0008, 4.034958
589.4829, 3.995255
589.9650, 4.097092
590.4471, 4.367073
590.9293, 5.094513
591.4114, 5.253586
591.8935, 4.510803
592.3756, 3.463020
592.8577, 3.213135
593.3398, 3.797501
593.8220, 4.640587
594.3041, 5.766579
594.7862, 6.877586
595.2683, 7.086037
595.7504, 6.506287
596.2325, 6.011230
596.7147, 6.461250
597.1968, 7.125565
597.6789, 7.032463
598.1610, 6.100037
598.6431, 5.291672
599.1252, 5.320518
599.6074, 5.608505
600.0895, 5.643646
600.5716, 4.932442
601.0537, 4.671303
601.5358, 5.501060
602.0179, 6.697350
602.5001, 7.339424
602.9822, 7.295174
603.4643, 6.912033
603.9464, 6.033394
604.4285, 4.933769
604.9106, 4.608292
605.3928, 5.126625
605.8749, 5.611504
606.3570, 5.517014
606.8391, 5.090157
607.3212, 5.163864
607.8033, 5.740341
608.2855, 6.513733
608.7676, 7.711967
609.2497, 8.710831
609.7318, 8.494270
610.2139, 6.610641
610.6960, 5.058922
611.1782, 5.074738
611.6603, 5.797127
612.1424, 6.437805
612.6245, 7.133575
613.1066, 7.489563
613.5887, 7.058830
614.0709, 6.236107
614.5530, 5.879318
615.0351, 6.139359
615.5172, 6.267723
615.9993, 6.073662
616.4814, 5.670036
616.9636, 5.574837
617.4457, 5.792557
617.9278, 6.180138
618.4099, 6.704140
618.8920, 7.317032
619.3741, 8.040878
619.8563, 8.894760
620.3384, 9.351326
620.8205, 8.391548
621.3026, 7.027878
621.7847, 6.666008
622.2668, 7.970688
622.7490, 9.087540
623.2311, 9.086113
623.7132, 8.532120
624.1953, 8.152458
624.6774, 8.544022
625.1595, 8.430870
625.6417, 7.435013
626.1238, 5.928650
626.6059, 4.877533
627.0880, 4.267372
627.5701, 4.233246
628.0522, 4.986000
628.5344, 6.327515
629.0165, 7.442093
629.4986, 8.345139
629.9807, 8.672386
630.4628, 7.574226
630.9449, 5.867477
631.4271, 5.170494
631.9092, 5.620995
632.3913, 6.337540
632.8734, 6.818520
633.3555, 7.082817
633.8376, 7.240456
634.3198, 7.349823
634.8019, 7.334122
635.2840, 7.084854
635.7661, 6.708939
636.2482, 6.338768
636.7303, 5.767387
637.2125, 5.566444
637.6946, 6.025131
638.1767, 6.857063
638.6588, 7.203041
639.1409, 6.987755
639.6230, 6.775200
640.1052, 6.859062
640.5873, 7.075447
641.0694, 6.914787
641.5515, 6.400780
642.0336, 5.803329
642.5157, 5.030098
642.9979, 4.457848
643.4800, 4.752113
643.9621, 6.008789
644.4442, 6.875732
644.9263, 6.120796
645.4084, 5.022575
645.8906, 4.640594
646.3727, 5.589516
646.8548, 6.436783
647.3369, 7.289818
647.8190, 7.863197
648.3011, 7.685539
648.7833, 6.409546
649.2654, 5.571465
649.7475, 5.452888
650.2296, 5.787354
650.7117, 6.159019
651.1938, 6.566399
651.6760, 6.774567
652.1581, 6.428810
652.6402, 6.040588
653.1223, 6.582329
653.6044, 7.856026
654.0865, 8.933281
654.5687, 9.349136
655.0508, 9.360329
655.5329, 8.947952
656.0150, 8.125626
656.4971, 7.527840
656.9792, 7.282219
657.4614, 7.255280
657.9435, 7.409096
658.4256, 7.936211
658.9077, 7.969955
659.3898, 7.326874
659.8719, 6.461830
660.3541, 5.710724
660.8362, 5.076729
661.3183, 4.809456
661.8004, 5.014641
662.2825, 5.360107
662.7646, 5.312935
663.2468, 5.085464
663.7289, 5.208138
664.2110, 6.334114
664.6931, 7.272156
665.1752, 6.880798
665.6573, 5.691383
666.1395, 4.922600
666.6216, 5.560074
667.1037, 6.006516
667.5858, 5.362411
668.0679, 3.884293
668.5500, 3.533150
669.0322, 4.893471
669.5143, 6.281517
669.9964, 6.981903
670.4785, 7.022804
670.9606, 6.809685
671.4427, 6.310402
671.9249, 5.814796
672.4070, 5.660896
672.8891, 5.757423
673.3712, 5.719543
673.8533, 5.574921
674.3354, 5.383415
674.8176, 5.113495
675.2997, 4.917137
675.7818, 4.864815
676.2639, 5.024742
676.7460, 5.171158
677.2281, 5.198723
677.7103, 5.186798
678.1924, 5.226364
678.6745, 5.254448
679.1566, 5.395859
679.6387, 5.707123
680.1208, 6.083427
680.6030, 6.304520
681.0851, 6.412003
681.5672, 6.374222
682.0493, 6.012657
682.5314, 5.685265
683.0135, 6.281052
683.4957, 7.516006
683.9778, 8.262329
684.4599, 7.581467
684.9420, 6.471535
685.4241, 5.539162
685.9063, 4.819824
686.3884, 4.171600
686.8705, 3.403946
687.3526, 2.846687
687.8347, 2.637962
688.3168, 2.817879
688.7990, 3.287781
689.2811, 4.298790
689.7632, 5.085716
690.2453, 4.748322
690.7274, 3.402565
691.2095, 2.957527
691.6917, 3.694351
692.1738, 4.530136
692.6559, 4.102791
693.1380, 3.043335
693.6201, 2.421608
694.1022, 2.566559
694.5844, 2.966484
695.0665, 3.382912
695.5486, 3.816193
696.0307, 4.282394
696.5128, 5.145462
696.9949, 5.565041
697.4771, 5.286057
697.9592, 4.648354
698.4413, 4.395332
698.9234, 4.707626
699.4055, 4.651787
699.8876, 3.863197
700.3698, 2.659775
700.8519, 1.789116
701.3340, 1.245407
701.8161, 0.9781720
702.2982, 1.106308
702.7803, 1.389610
703.2625, 1.527031
703.7446, 1.572014
704.2267, 1.791565
704.7088, 2.640450
705.1909, 3.395042
705.6730, 3.604301
706.1552, 3.194450
706.6373, 2.935623
707.1194, 2.901566
707.6015, 2.919846
708.0836, 2.922806
708.5657, 2.913857
709.0479, 2.793999
709.5300, 2.562164
710.0121, 2.198807
710.4942, 1.305862
710.9763, 0.3223880
711.4584, 0.5525510
711.9406, 2.351959
712.4227, 3.820267
712.9048, 2.902977
713.3869, 1.260071
713.8690, 0.7220840
714.3511, 2.735275
714.8333, 3.990448
715.3154, 3.031906
715.7975, 1.461754
716.2796, 1.044563
716.7617, 2.309654
717.2438, 3.169571
717.7260, 3.299408
718.2081, 3.035484
718.6902, 2.975990
719.1723, 3.081924
719.6544, 3.001534
720.1365, 2.498146
720.6187, 1.956360
721.1008, 1.968102
721.5829, 2.294998
722.0650, 2.382927
722.5471, 1.666733
723.0292, 0.9738310
723.5114, 0.6488340
723.9935, 0.6434480
724.4756, 0.7485660
724.9577, 1.042824
725.4398, 1.282784
725.9219, 1.354073
726.4041, 1.307373
726.8862, 1.451126
727.3683, 1.803062
727.8504, 2.099640
728.3325, 2.417740
728.8146, 2.519897
729.2968, 1.424896
729.7789, 0.6684040
730.2610, 1.993332
730.7431, 0.3249360
731.2252, 1.702721
731.7073, 2.005112
732.1895, 0.2573550
732.6716, 1.314560
733.1537, 2.349556
733.6358, 3.076874
734.1179, 3.586945
734.6000, 3.865166
735.0822, 4.043427
735.5643, 4.173874
736.0464, 4.037804
736.5285, 3.293930
737.0106, 2.098091
737.4927, 0.9404530
737.9749, 0.1665420
738.4570, 0.8776780
738.9391, 0.5562900
739.4212, 0.1773150
739.9033, 0.6161730
740.3854, 0.5160900
740.8676, 0.3391490
741.3497, 0.1618650
741.8318, 1.3500000E-03
742.3139, 0.1264190
742.7960, 0.1335140
743.2781, 0.3489530
743.7603, 0.9401780
744.2424, 1.486374
744.7245, 1.203407
745.2066, 0.2088470
745.6887, 0.4630050
746.1708, 0.4735340
746.6530, 0.3124160
747.1351, 0.7495800
747.6172, 1.388344
748.0993, 1.515976
748.5814, 0.1283720
749.0635, 0.9340740
749.5457, 0.9337840
750.0278, 0.2107240
750.5099, 0.5056760
750.9920, 1.214478
751.4741, 1.942780
751.9562, 2.819817
752.4384, 3.583961
752.9205, 3.488655
753.4026, 2.552567
753.8847, 1.367615
754.3668, 6.9045998E-02
754.8489, 1.354515
755.3311, 1.860123
755.8132, 1.730118
756.2953, 1.367455
756.7774, 0.4590000
757.2595, 0.1397710
757.7416, 0.1711580
758.2238, 1.200775
758.7059, 1.972519
759.1880, 2.519691
759.6701, 2.674835
760.1522, 2.284042
760.6343, 1.485023
761.1165, 0.9085160
761.5986, 0.5491870
762.0807, 0.5055080
762.5628, 1.056656
763.0449, 1.868454
763.5270, 2.276398
764.0092, 2.365524
764.4913, 2.639236
764.9734, 3.715363
765.4555, 4.776749
765.9376, 5.062347
766.4197, 4.557526
766.9019, 4.954407
767.3840, 6.613266
767.8661, 8.772461
768.3482, 11.35463
768.8303, 14.30455
769.3124, 15.90186
769.7946, 16.06938
770.2767, 16.27971
770.7588, 17.84023
771.2409, 20.04941
771.7230, 21.60596
772.2051, 22.57341
772.6873, 23.80548
773.1694, 26.33615
773.6515, 28.91290
774.1336, 30.51421
774.6157, 30.79063
775.0978, 32.02312
775.5800, 34.48918
776.0621, 37.62883
776.5442, 41.38582
777.0263, 45.83965
777.5084, 49.10748
777.9905, 51.06142
778.4727, 53.20848
778.9548, 57.15952
779.4369, 62.07436
779.9190, 66.33762
780.4011, 69.70329
780.8832, 73.61041
781.3654, 79.25673
781.8475, 85.45663
782.3296, 91.24591
782.8117, 96.05574
783.2938, 101.8949
783.7759, 109.3687
784.2581, 117.0491
784.7402, 123.7774
785.2223, 129.5306
785.7044, 135.1669
786.1865, 140.6326
786.6686, 146.3131
787.1508, 152.9316
787.6329, 159.7630
788.1150, 165.9395
788.5971, 171.5430
789.0792, 176.5556
789.5613, 180.6356
790.0435, 184.3882
790.5256, 188.3022
791.0077, 192.5013
791.4898, 196.7163
791.9719, 201.2190
792.4540, 205.2716
792.9362, 207.9294
793.4183, 209.3341
793.9004, 210.7685
794.3825, 212.4410
794.8646, 213.6966
795.3467, 213.9797
795.8289, 213.4050
796.3110, 211.9893
796.7931, 209.5681
797.2752, 207.0322
797.7573, 204.4421
798.2394, 202.0516
798.7216, 200.1349
799.2037, 199.2158
799.6858, 197.1522
800.1679, 193.4692
800.6500, 189.6974
801.1321, 187.9376
801.6143, 187.5381
802.0964, 184.9124
802.5785, 179.4736
803.0606, 173.7044
803.5427, 170.1131
804.0248, 167.2737
804.5070, 163.4198
804.9891, 157.6924
805.4712, 152.5463
805.9533, 148.9574
806.4354, 145.8500
806.9175, 142.3743
807.3997, 138.4051
807.8818, 134.5278
808.3639, 130.7168
808.8460, 127.2219
809.3281, 124.3088
809.8102, 121.9214
810.2924, 120.1197
810.7745, 119.0373
811.2566, 117.8140
811.7387, 115.0077
812.2208, 112.2666
812.7029, 111.2553
813.1851, 113.2421
813.6672, 114.1197
814.1493, 112.9657
814.6314, 111.5462
815.1135, 111.3792
815.5956, 112.5349
816.0778, 113.2214
816.5599, 113.3226
817.0420, 113.3310
817.5241, 113.3722
818.0062, 113.7643
818.4883, 115.2559
818.9705, 118.1085
819.4526, 120.6351
819.9347, 121.5604
820.4168, 122.2050
820.8989, 123.4653
821.3810, 125.2839
821.8632, 128.0210
822.3453, 131.9590
822.8274, 136.2269
823.3095, 139.9704
823.7916, 143.3689
824.2737, 147.0835
824.7559, 151.1585
825.2380, 155.6259
825.7201, 160.3811
826.2022, 165.5878
826.6843, 171.5383
827.1664, 178.3722
827.6486, 184.8634
828.1307, 190.4124
828.6128, 195.8949
829.0949, 201.6790
829.5770, 207.6882
830.0591, 214.5566
830.5413, 222.3342
831.0234, 230.4902
831.5055, 238.4413
831.9876, 246.5195
832.4697, 256.1351
832.9518, 267.0639
833.4340, 276.7870
833.9161, 282.2423
834.3982, 287.2101
834.8803, 294.6787
835.3624, 305.0768
835.8445, 312.5869
836.3267, 316.2770
836.8088, 318.8745
837.2909, 321.7037
837.7730, 324.5398
838.2551, 325.9455
838.7372, 325.9703
839.2194, 325.3407
839.7015, 324.4544
840.1836, 323.1472
840.6657, 320.9695
841.1478, 318.0840
841.6299, 315.6354
842.1121, 313.6400
842.5942, 312.6929
843.0763, 313.1928
843.5584, 314.7845
844.0405, 315.8025
844.5226, 316.1204
845.0048, 316.8100
845.4869, 318.7706
845.9690, 321.1624
846.4511, 322.1799
846.9332, 321.9508
847.4153, 321.1094
847.8975, 320.6666
848.3796, 319.1661
848.8617, 315.2087
849.3438, 309.4100
849.8259, 304.3246
850.3080, 300.7180
850.7902, 296.4161
851.2723, 291.0510
851.7544, 284.7169
852.2365, 277.3892
852.7186, 269.1867
853.2007, 260.6580
853.6829, 251.5168
854.1650, 242.9459
854.6471, 236.4449
855.1292, 231.2627
855.6113, 225.9505
856.0934, 220.0082
856.5756, 213.8590
857.0577, 207.5289
857.5398, 201.1535
858.0219, 194.6028
858.5040, 187.7661
858.9861, 180.9325
859.4683, 174.1562
859.9504, 167.4215
860.4325, 160.9684
860.9146, 154.4705
861.3967, 147.4401
861.8788, 139.5641
862.3610, 131.7294
862.8431, 124.1604
863.3252, 116.9453
863.8073, 110.3051
864.2894, 104.4923
864.7715, 98.14299
865.2537, 90.90794
865.7358, 84.03096
866.2179, 78.98279
866.7000, 75.15390
867.1821, 70.71748
867.6642, 65.41808
868.1464, 60.39240
868.6285, 56.19330
869.1106, 52.64224
869.5927, 49.60349
870.0748, 47.10715
870.5569, 44.89908
871.0391, 43.22156
871.5212, 41.37656
872.0033, 38.74554
872.4854, 35.50803
872.9675, 33.29866
873.4496, 32.02344
873.9318, 30.73120
874.4139, 28.40703
874.8960, 26.04810
875.3781, 24.79877
875.8602, 24.48879
876.3423, 23.64323
876.8245, 21.42395
877.3066, 19.17778
877.7887, 17.07885
878.2708, 15.26120
878.7529, 14.55248
879.2350, 14.95927
879.7172, 15.00078
880.1993, 13.80975
880.6814, 12.21318
881.1635, 11.38525
881.6456, 11.00085
882.1277, 10.29978
882.6099, 8.160347
883.0920, 6.675331
883.5741, 6.896690
884.0562, 7.886230
884.5383, 8.205315
885.0204, 7.801392
885.5026, 6.923340
885.9847, 5.410645
886.4668, 4.038330
886.9489, 4.278503
887.4310, 5.376961
887.9131, 5.739594
888.3953, 4.715187
888.8774, 3.651527
889.3595, 3.101791
889.8416, 2.815071
890.3237, 2.544838
890.8058, 2.268822
891.2880, 2.076469
891.7701, 1.993690
892.2522, 1.919456
892.7343, 1.751968
893.2164, 1.518997
893.6985, 1.289055
894.1807, 1.071220
894.6628, 0.8601840
895.1449, 0.7994460
895.6270, 0.6323930
896.1091, 4.9210001E-02
896.5912, 1.006531
897.0734, 1.565666
897.5555, 1.509056
898.0376, 1.201820
898.5197, 0.6019740
899.0018, 5.1330999E-02
899.4839, 0.3932270
899.9661, 1.717216
900.4482, 2.645317
900.9303, 2.174019
901.4124, 1.361710
901.8945, 0.5966340
902.3766, 3.3500999E-02
902.8588, 0.2078860
903.3409, 1.896004
903.8230, 2.866951
904.3051, 2.469734
904.7872, 1.460777
905.2693, 1.549629
905.7515, 2.497482
906.2336, 2.772606
906.7157, 1.728615
907.1978, 0.5347600
907.6799, 9.6054003E-02
908.1620, 0.1390840
908.6442, 0.3468930
909.1263, 0.8241810
909.6084, 1.180878
910.0905, 1.484970
910.5726, 1.560341
911.0547, 0.9245000
911.5369, 0.2810900
912.0190, 8.8348001E-02
912.5011, 1.663727
912.9832, 3.293892
913.4653, 3.207558
913.9474, 2.478996
914.4296, 2.200836
914.9117, 2.506027
915.3938, 2.295990
915.8759, 0.9195100
916.3580, 0.3004840
916.8401, 0.7695920
917.3223, 0.6321640
917.8044, 0.6957930
918.2865, 0.9574970
918.7686, 1.339722
919.2507, 2.140427
919.7328, 2.756310
920.2150, 2.368881
920.6971, 1.332001
921.1792, 0.5216220
921.6613, 0.2687840
922.1434, 7.4463002E-02
922.6255, 1.785645
923.1077, 4.232773
923.5898, 5.280624
924.0719, 5.005310
924.5540, 4.585068
925.0361, 4.091644
925.5182, 4.011551
926.0004, 5.518440
926.4825, 7.449455
926.9646, 8.371284
927.4467, 7.741859
927.9288, 6.802849
928.4109, 5.061867
928.8931, 3.858322
929.3752, 4.530296
929.8573, 7.015610
930.3394, 7.852562
930.8215, 7.042831
931.3036, 6.287910
931.7858, 7.251236
932.2679, 8.569946
932.7500, 8.882004
933.2321, 8.257721
933.7142, 7.588287
934.1964, 6.937172
934.6785, 6.426384
935.1606, 6.031052
935.6427, 5.845909
936.1248, 6.460403
936.6069, 7.770325
937.0891, 8.324959
937.5712, 7.210922
938.0533, 5.984879
938.5354, 6.490280
939.0175, 7.762627
939.4996, 8.387161
939.9818, 7.225601
940.4639, 6.587875
940.9460, 6.756561
941.4281, 7.244713
941.9102, 7.692810
942.3923, 8.000977
942.8745, 7.865219
943.3566, 7.300560
943.8387, 6.937317
944.3208, 7.683746
944.8029, 8.565659
945.2850, 8.595772
945.7672, 7.647507
946.2493, 7.199760
946.7314, 7.457863
947.2135, 8.067329
947.6956, 9.153740
948.1777, 10.37605
948.6599, 10.20118
949.1420, 8.875938
949.6241, 7.791748
950.1062, 7.700294
950.5883, 7.948608
951.0704, 8.250580
951.5526, 8.540985
952.0347, 8.684708
952.5168, 8.575623
952.9989, 8.531860
953.4810, 8.617073
953.9631, 8.704987
954.4453, 8.619759
954.9274, 8.364822
955.4095, 7.925728
955.8916, 7.288040
956.3737, 6.860474
956.8558, 6.863762
957.3380, 7.169441
957.8201, 7.858498
958.3022, 9.000374
958.7843, 9.318497
959.2664, 8.604942
959.7485, 7.774956
960.2307, 7.189629
960.7128, 6.802483
961.1949, 6.596352
961.6770, 6.531273
962.1591, 6.438759
962.6412, 6.284668
963.1234, 6.000259
963.6055, 5.368927
964.0876, 4.658241
964.5697, 4.344322
965.0518, 4.531166
965.5339, 4.638702
966.0161, 4.564636
966.4982, 4.407120
966.9803, 4.152733
967.4624, 3.936607
967.9445, 4.109146
968.4266, 4.821701
968.9088, 5.212097
969.3909, 4.467453
969.8730, 3.759308
970.3551, 3.761559
970.8372, 4.404060
971.3193, 4.373825
971.8015, 3.687202
972.2836, 2.976563
972.7657, 2.590279
973.2478, 2.356224
973.7299, 2.057617
974.2120, 1.775757
974.6942, 1.685440
975.1763, 2.040718
975.6584, 2.299744
976.1405, 2.446861
976.6226, 2.430069
977.1047, 2.002808
977.5869, 1.230194
978.0690, 1.122528
978.5511, 1.906090
979.0332, 2.428429
979.5153, 1.270897
979.9974, 0.2466660
980.4796, 0.8529430
980.9617, 0.3516770
981.4438, 1.6754000E-02
981.9259, 0.1401750
982.4080, 0.1459120
982.8901, 1.635338
983.3723, 3.632896
983.8544, 3.627953
984.3365, 2.068130
984.8186, 0.8123780
985.3007, 1.011147
985.7828, 1.470627
986.2650, 1.670715
986.7471, 1.744308
987.2292, 1.994469
987.7113, 2.652153
988.1934, 2.503334
988.6755, 1.247192
989.1577, 6.0440000E-02
989.6398, 0.1492000
990.1219, 0.4818800
990.6040, 1.014626
991.0861, 1.353432
991.5682, 1.759163
992.0504, 2.730286
992.5325, 3.353828
993.0146, 3.079651
993.4967, 2.123878
993.9788, 1.622681
994.4609, 1.576363
994.9431, 1.865730
995.4252, 2.744698
995.9073, 3.482521
996.3894, 2.985298
996.8715, 1.892487
997.3536, 1.243340
997.8358, 2.138229
998.3179, 2.142311
998.8000, 0.6188280
999.2821, 0.8945620
999.7642, 0.6936800
1000.246, 0.8884120
1000.728, 2.127945
1001.211, 2.937645
1001.693, 3.272003
1002.175, 2.414848
1002.657, 1.694283
1003.139, 2.396919
1003.621, 4.211403
1004.103, 4.614250
1004.585, 3.118652
1005.068, 2.083534
1005.550, 2.273514
1006.032, 3.002266
1006.514, 3.228844
1006.996, 3.146072
1007.478, 3.189957
1007.960, 3.703156
1008.442, 3.876396
1008.924, 2.927284
1009.407, 1.925369
1009.889, 1.595024
1010.371, 1.970718
1010.853, 1.890182
1011.335, 1.344627
1011.817, 1.258369
1012.299, 2.988182
1012.781, 4.840240
1013.263, 4.987671
1013.746, 3.909698
1014.228, 3.369522
1014.710, 3.482681
1015.192, 4.574730
1015.674, 7.281555
1016.156, 10.00038
1016.638, 9.823914
1017.120, 7.669846
1017.603, 6.471802
1018.085, 6.810249
1018.567, 7.278801
1019.049, 6.981262
1019.531, 6.581703
1020.013, 6.530769
1020.495, 6.820694
1020.977, 7.099144
1021.459, 7.347488
1021.942, 7.768387
1022.424, 8.649033
1022.906, 9.529549
1023.388, 9.651489
1023.870, 9.328293
1024.352, 9.174271
1024.834, 9.659897
1025.316, 9.902649
1025.799, 9.686951
1026.281, 9.415001
1026.763, 9.522186
1027.245, 9.955444
1027.727, 10.36115
1028.209, 10.72779
1028.691, 11.17053
1029.173, 12.37177
1029.656, 13.12592
1030.138, 12.00568
1030.620, 9.552315
1031.102, 8.780174
1031.584, 10.17875
1032.066, 11.29644
1032.548, 11.54103
1033.030, 11.22449
1033.512, 10.52036
1033.995, 9.655975
1034.477, 8.978683
1034.959, 8.470207
1035.441, 8.509544
1035.923, 10.00569
1036.405, 11.17271
1036.887, 10.87732
1037.369, 9.294708
1037.851, 7.882195
1038.334, 6.722527
1038.816, 6.289223
1039.298, 7.404800
1039.780, 8.687714
1040.262, 9.480278
1040.744, 9.784264
1041.226, 9.520760
1041.708, 8.402451
1042.191, 7.604988
1042.673, 7.240562
1043.155, 7.009102
1043.637, 6.518051
1044.119, 5.944679
1044.601, 5.679359
1045.083, 5.725090
1045.565, 5.588890
1046.047, 4.970863
1046.530, 4.232399
1047.012, 3.359291
1047.494, 2.528366
1047.976, 2.305336
1048.458, 2.581642
1048.940, 2.558517
1049.422, 1.828590
1049.904, 1.363106
1050.386, 2.373390
1050.869, 3.707344
1051.351, 4.069397
1051.833, 3.180305
1052.315, 2.824356
1052.797, 3.148865
1053.279, 3.339615
1053.761, 2.471191
1054.243, 1.451218
1054.726, 2.294083
1055.208, 4.271225
1055.690, 5.463234
1056.172, 4.542801
1056.654, 3.526451
1057.136, 2.361023
1057.618, 1.613739
1058.100, 2.288353
1058.583, 4.003654
1059.065, 4.379143
1059.547, 3.263977
1060.029, 2.205330
1060.511, 2.495445
1060.993, 2.994926
1061.475, 2.977127
1061.957, 2.548744
1062.439, 2.220871
1062.922, 1.979576
1063.404, 2.019737
1063.886, 2.568283
1064.368, 2.874886
1064.850, 1.260902
1065.332, 0.8244710
1065.814, 1.198578
1066.296, 1.079498
1066.778, 2.665253
1067.261, 3.184158
1067.743, 3.078194
1068.225, 2.383492
1068.707, 1.329826
1069.189, 0.6866530
1069.671, 0.3842240
1070.153, 0.1817930
1070.635, 0.1250080
1071.118, 0.2513810
1071.600, 3.4903999E-02
1072.082, 0.4074250
1072.564, 1.038658
1073.046, 1.897743
1073.528, 2.450912
1074.010, 2.645851
1074.492, 2.738335
1074.974, 3.166077
1075.457, 3.363319
1075.939, 2.417793
1076.421, 0.7460630
1076.903, 0.1553730
1077.385, 1.058792
1077.867, 1.922554
1078.349, 2.564651
1078.831, 3.047913
1079.313, 3.532280
1079.796, 3.892891
1080.278, 3.814293
1080.760, 3.206947
1081.242, 2.717117
1081.724, 2.434715
1082.206, 2.501907
1082.688, 3.174339
1083.170, 4.126228
1083.652, 4.142906
1084.135, 3.420807
1084.617, 3.003159
1085.099, 3.392517
1085.581, 3.733711
1086.063, 3.138824
1086.545, 2.531067
1087.027, 2.986420
1087.509, 4.749001
1087.992, 4.661987
1088.474, 2.560440
1088.956, 0.7100910
1089.438, 0.5894850
1089.920, 1.340019
1090.402, 2.565521
1090.884, 3.879913
1091.366, 4.414200
1091.849, 3.444664
1092.331, 2.956558
1092.813, 3.245651
1093.295, 3.466072
1093.777, 2.223221
1094.259, 0.5279690
1094.741, 0.7716450
1095.223, 2.716347
1095.705, 4.088150
1096.188, 3.519630
1096.670, 2.749016
1097.152, 2.059700
1097.634, 1.586540
1098.116, 1.674904
1098.598, 2.222641
1099.080, 2.685043
1099.562, 2.948883
1100.044, 3.107040
1100.527, 3.284058
1101.009, 3.312401
1101.491, 3.058502
1101.973, 2.557747
1102.455, 1.839134
1102.937, 0.9189070
1103.419, 0.6718670
1103.901, 1.493408
1104.384, 2.388947
1104.866, 2.086426
1105.348, 1.310616
1105.830, 0.9697950
1106.312, 1.377075
1106.794, 1.332779
1107.276, 0.6830670
1107.758, 0.1159740
1108.240, 2.6176000E-02
1108.723, 0.1945570
1109.205, 0.8522800
1109.687, 1.757698
1110.169, 2.477753
1110.651, 3.207863
1111.133, 3.167824
1111.615, 1.989746
1112.097, 0.6102830
1112.579, 0.1546780
1113.062, 0.4102020
1113.544, 0.4760440
1114.026, 0.3840330
1114.508, 0.2542190
1114.990, 0.3528590
1115.472, 0.1571270
1115.954, 0.7947160
1116.436, 1.930901
1116.919, 2.369911
1117.401, 2.149101
1117.883, 1.749557
1118.365, 1.213821
1118.847, 0.8182300
1119.329, 0.8430860
1119.811, 1.013680
1120.293, 1.240776
1120.776, 1.453438
1121.258, 1.341911
1121.740, 0.8525540
1122.222, 0.5592120
1122.704, 0.6303560
1123.186, 0.7584230
1123.668, 0.5853120
1124.150, 0.4362410
1124.632, 0.5805440
1125.115, 1.097549
1125.597, 1.574059
1126.079, 2.202003
1126.561, 2.296303
1127.043, 1.305222
1127.525, 9.3399003E-02
1128.007, 0.3189930
1128.489, 1.261818
1128.971, 1.662674
1129.454, 0.9871900
1129.936, 0.3959430
1130.418, 0.1465380
1130.900, 0.3070530
1131.382, 0.2600860
1131.864, 1.286049
1132.346, 2.320381
1132.828, 3.156784
1133.311, 3.127609
1133.793, 0.8045500
1134.275, 0.7713620
1134.757, 0.6602710
1135.239, 7.1837999E-02
1135.721, 0.6936870
1136.203, 1.166237
1136.685, 0.9901430
1137.167, 0.2610700
1137.650, 0.1266710
1138.132, 0.8210070
1138.614, 1.687401
1139.096, 1.642784
1139.578, 1.228172
1140.060, 1.186607
1140.542, 1.519669
1141.024, 1.837013
1141.506, 2.112236
1141.989, 2.137665
1142.471, 1.424736
1142.953, 0.7167050
1143.435, 0.6975100
1143.917, 0.2789840
1144.399, 3.9664999E-02
1144.881, 0.1525880
1145.363, 0.2641530
1145.846, 8.6006001E-02
1146.328, 0.5355610
1146.810, 1.933289
1147.292, 3.345070
1147.774, 4.094200
1148.256, 4.078117
1148.738, 3.451180
1149.220, 1.932770
1149.703, 1.026283
1150.185, 1.333794
1150.667, 1.873283
1151.149, 0.9949260
1151.631, 0.2895510
1152.113, 0.4010090
1152.595, 1.159218
1153.077, 1.836914
1153.559, 0.9803700
1154.042, 0.6413190
1154.524, 2.044403
1155.006, 3.839973
1155.488, 3.192680
1155.970, 1.170601
1156.452, 0.1140440
1156.934, 7.5188003E-02
1157.416, 0.3380130
1157.898, 0.4643780
1158.381, 0.7161100
1158.863, 1.443710
1159.345, 2.210876
1159.827, 1.304939
1160.309, 0.5784230
1160.791, 1.485870
1161.273, 1.2627000E-02
1161.755, 1.241539
1162.238, 1.677689
1162.720, 1.852959
1163.202, 2.252289
1163.684, 2.746956
1164.166, 2.410316
1164.648, 1.475830
1165.130, 0.9861680
1165.612, 2.026375
1166.094, 2.846504
1166.577, 2.887436
1167.059, 2.491577
1167.541, 1.685959
1168.023, 0.6025160
1168.505, 0.8578640
1168.987, 2.309067
1169.469, 3.335228
1169.951, 2.255066
1170.433, 1.375816
1170.916, 2.245575
1171.398, 3.585739
1171.880, 3.584427
1172.362, 2.334404
1172.844, 1.705444
1173.326, 1.846001
1173.808, 2.154968
1174.290, 2.400551
1174.773, 2.487885
1175.255, 2.202255
1175.737, 1.777962
1176.219, 1.701195
1176.701, 1.973289
1177.183, 1.991493
1177.665, 1.644905
1178.147, 1.667984
1178.630, 3.256050
1179.112, 4.850807
1179.594, 5.408569
1180.076, 5.042900
1180.558, 4.030602
1181.040, 2.314323
1181.522, 0.8341900
1182.004, 0.2827910
1182.486, 0.7844010
1182.969, 0.1996080
1183.451, 1.360519
1183.933, 1.447411
1184.415, 0.6276170
1184.897, 0.3619770
1185.379, 0.6825490
1185.861, 1.159744
1186.343, 1.712395
1186.825, 2.254768
1187.308, 3.007286
1187.790, 3.491249
1188.272, 2.907227
1188.754, 1.309128
1189.236, 0.9205400
1189.718, 1.880692
1190.200, 2.604004
1190.682, 2.460747
1191.165, 2.259506
1191.647, 3.306709
1192.129, 4.424507
1192.611, 4.235695
1193.093, 2.550827
1193.575, 1.503929
1194.057, 1.155464
1194.539, 0.9745250
1195.021, 0.7287830
1195.504, 0.5844040
1195.986, 0.9632420
1196.468, 1.458405
1196.950, 1.404175
1197.432, 0.5322110
1197.914, 0.8211210
1198.396, 2.508781
1198.878, 3.714630
1199.360, 3.250542
1199.843, 2.312492
1200.325, 2.333015
1200.807, 2.763748
1201.289, 2.800316
1201.771, 2.226677
1202.253, 1.853455
1202.735, 1.704475
1203.217, 1.667953
1203.700, 1.737625
1204.182, 1.897903
1204.664, 2.288712
1205.146, 2.734459
1205.628, 2.750977
1206.110, 1.992737
1206.592, 1.840347
1207.074, 2.356689
1207.557, 3.074272
1208.039, 4.127197
1208.521, 4.810776
1209.003, 3.765892
1209.485, 1.938034
1209.967, 1.246422
1210.449, 2.587570
1210.931, 2.734077
1211.413, 1.427856
1211.896, 0.5630190
1212.378, 2.325813
1212.860, 4.453293
1213.342, 4.350296
1213.824, 2.838829
1214.306, 1.546509
1214.788, 0.5923160
1215.270, 3.9429002E-02
1215.752, 0.3789520
1216.235, 0.1660080
1216.717, 1.403381
1217.199, 3.089729
1217.681, 3.680405
1218.163, 3.379715
1218.645, 2.705795
1219.127, 1.680580
1219.609, 1.114922
1220.092, 1.058861
1220.574, 1.178467
1221.056, 1.166031
1221.538, 1.245575
1222.020, 1.790520
1222.502, 2.548706
1222.984, 2.970192
1223.466, 3.045227
1223.948, 2.587250
1224.431, 1.519394
1224.913, 0.7936630
1225.395, 1.726906
1225.877, 2.804398
1226.359, 2.552948
1226.841, 1.535294
1227.323, 1.279907
1227.805, 2.000984
1228.287, 2.291359
1228.770, 2.102974
1229.252, 1.910034
1229.734, 2.345528
1230.216, 2.671097
1230.698, 1.880402
1231.180, 0.7138440
1231.662, 0.9813690
1232.144, 2.831062
1232.627, 4.094925
1233.109, 4.593079
1233.591, 4.527870
1234.073, 3.429848
1234.555, 2.458794
1235.037, 2.587944
1235.519, 3.293907
1236.001, 3.638397
1236.484, 3.620216
1236.966, 3.365318
1237.448, 2.889305
1237.930, 2.376633
1238.412, 1.734589
1238.894, 1.322670
1239.376, 1.540756
1239.858, 1.991676
1240.340, 2.071899
1240.823, 1.897995
1241.305, 1.778809
1241.787, 1.744827
1242.269, 1.744141
1242.751, 1.734589
1243.233, 1.788750
1243.715, 1.986946
1244.197, 2.197975
1244.679, 2.104309
1245.162, 1.808304
1245.644, 1.958160
1246.126, 2.586937
1246.608, 3.016365
1247.090, 2.569572
1247.572, 2.313370
1248.054, 2.717178
1248.536, 2.394409
1249.019, 3.131149
1249.501, 2.520248
1249.983, 2.424194
1250.465, 2.859886
1250.947, 3.038918
1251.429, 2.186043
1251.911, 1.687363
1252.393, 1.998772
1252.875, 2.462952
1253.358, 1.941231
1253.840, 0.9756550
1254.322, 0.9590610
1254.804, 1.862648
1255.286, 2.389450
1255.768, 1.727585
1256.250, 1.470940
1256.732, 1.953461
1257.214, 2.671410
1257.697, 3.126923
1258.179, 3.344307
1258.661, 3.379738
1259.143, 3.214935
1259.625, 2.576630
1260.107, 1.133110
1260.589, 0.4785690
1261.071, 0.9945680
1261.554, 1.573456
1262.036, 0.5735470
1262.518, 0.6928020
1263.000, 0.4885250
1263.482, 0.9089200
1263.964, 1.696335
1264.446, 1.664314
1264.928, 1.600586
1265.411, 1.602814
1265.893, 1.569588
1266.375, 1.323357
1266.857, 1.079735
1267.339, 0.8865430
1267.821, 0.8881300
1268.303, 1.575378
1268.785, 3.067406
1269.267, 3.595215
1269.750, 2.942719
1270.232, 2.169701
1270.714, 1.937393
1271.196, 1.971962
1271.678, 2.284737
1272.160, 2.662636
1272.642, 2.777954
1273.124, 2.640274
1273.606, 2.333511
1274.089, 1.881950
1274.571, 1.525932
1275.053, 1.209610
1275.535, 1.303841
1276.017, 2.146729
1276.499, 3.206352
1276.981, 3.835777
1277.463, 4.078430
1277.946, 4.151848
1278.428, 4.035187
1278.910, 3.488434
1279.392, 1.639000
1279.874, 0.4740450
1280.356, 0.3876110
1280.838, 0.9314650
1281.320, 2.060226
1281.802, 3.260117
1282.285, 3.215385
1282.767, 2.188423
1283.249, 1.289444
1283.731, 1.820587
1284.213, 1.597427
1284.695, 0.1410450
1285.177, 0.8147890
1285.659, 1.261765
1286.141, 4.048927
1286.624, 4.379021
1287.106, 2.962517
1287.588, 1.993462
1288.070, 1.664307
1288.552, 1.804337
1289.034, 2.457123
1289.516, 2.979454
1289.998, 2.701263
1290.481, 2.271301
1290.963, 2.190208
1291.445, 2.323723
1291.927, 2.398888
1292.409, 2.471786
1292.891, 2.480553
1293.373, 2.425293
1293.855, 2.272354
1294.338, 1.162453
1294.820, 0.8384250
1295.302, 1.758026
1295.784, 2.900192
1296.266, 3.398033
1296.748, 3.324455
1297.230, 2.961571
1297.712, 2.450768
1298.194, 2.368568
1298.677, 4.071480
1299.159, 4.426857
1299.641, 2.281273
1300.123, 9.6267998E-02
1300.605, 4.9674999E-02
1301.087, 1.004494
1301.569, 1.256927
1302.051, 0.3939590
1302.533, 5.0301000E-02
1303.016, 0.0000000E+00
##END=



