##NAMES=Valentinite
##RRUFFID=R060516
##IDEAL CHEMISTRY=Sb_2_O_3_
##LOCALITY=Sombrerete, Zacatecas, Mexico
##OWNER=RRUFF
##SOURCE=Michael Scott
##DESCRIPTION=Colorless prismatic single crystals, adamantine luster, associated with pyrite and black metallic, elongated jamesonite.
##STATUS=The identification of this mineral is confirmed by single-crystal X-ray diffraction and chemical analysis.
##URL=rruff.info/R060516
##MEASURED CHEMISTRY=Sb_2.00_O_3_
89.78320, 0.0000000E+00
90.26532, 140.2637
90.74744, 44.38086
91.22955, 4.155273
91.71167, 54.70605
92.19379, 112.7021
92.67590, 185.5479
93.15802, 206.7998
93.64014, 147.7637
94.12225, 47.71875
94.60437, 24.39160
95.08649, 45.03125
95.56860, 33.99707
96.05072, 27.27930
96.53284, 17.50488
97.01495, 11.17090
97.49707, 69.01855
97.97919, 153.8730
98.46130, 264.2490
98.94342, 397.5986
99.42554, 557.0488
99.90765, 758.4287
100.3898, 1011.355
100.8719, 1291.769
101.3540, 1576.486
101.8361, 1878.754
102.3182, 2141.151
102.8004, 2347.486
103.2825, 2494.771
103.7646, 2594.729
104.2467, 2621.175
104.7288, 2614.174
105.2109, 2664.674
105.6931, 2771.284
106.1752, 2932.404
106.6573, 3156.761
107.1394, 3514.970
107.6215, 3818.426
108.1036, 4115.027
108.5858, 4393.896
109.0679, 4518.319
109.5500, 4418.764
110.0321, 4223.502
110.5142, 3995.848
110.9963, 3645.027
111.4785, 3334.285
111.9606, 3068.481
112.4427, 2847.852
112.9248, 2707.404
113.4069, 2667.510
113.8890, 2698.612
114.3712, 2776.949
114.8533, 2894.632
115.3354, 3060.222
115.8175, 3280.791
116.2996, 3561.748
116.7817, 3871.404
117.2639, 4171.457
117.7460, 4502.804
118.2281, 4917.442
118.7102, 5403.957
119.1923, 6002.447
119.6744, 6710.762
120.1566, 7511.265
120.6387, 8506.737
121.1208, 9715.058
121.6029, 11155.36
122.0850, 12859.75
122.5671, 14892.81
123.0493, 17176.92
123.5314, 19678.74
124.0135, 22465.53
124.4956, 25300.26
124.9777, 27968.94
125.4598, 30531.04
125.9420, 33049.75
126.4241, 35457.90
126.9062, 37855.75
127.3883, 40418.16
127.8704, 43161.19
128.3525, 46031.11
128.8347, 48990.32
129.3168, 52023.25
129.7989, 55004.23
130.2810, 57876.61
130.7631, 60595.17
131.2452, 63160.08
131.7274, 65517.19
132.2095, 67729.34
132.6916, 69943.80
133.1737, 72207.36
133.6558, 74722.45
134.1379, 77624.41
134.6201, 80919.06
135.1022, 84939.35
135.5843, 89621.23
136.0664, 95045.56
136.5485, 101651.2
137.0306, 109467.5
137.5128, 118520.5
137.9949, 129117.5
138.4770, 141371.6
138.9591, 154882.2
139.4412, 170001.2
139.9233, 186736.1
140.4055, 203651.0
140.8876, 222283.6
141.3697, 239539.5
141.8518, 251042.9
142.3339, 257527.1
142.8160, 256586.6
143.2982, 246156.8
143.7803, 223317.0
144.2624, 200375.8
144.7445, 176577.1
145.2266, 152916.2
145.7087, 132694.1
146.1909, 116313.0
146.6730, 102415.0
147.1551, 90407.38
147.6372, 81151.48
148.1193, 72626.06
148.6014, 64815.84
149.0836, 57740.69
149.5657, 51161.31
150.0478, 45119.75
150.5299, 39676.33
151.0120, 34828.36
151.4941, 30720.83
151.9763, 27085.70
152.4584, 23967.33
152.9405, 21333.56
153.4226, 18941.12
153.9047, 16815.94
154.3868, 14898.54
154.8690, 13156.61
155.3511, 11628.41
155.8332, 10230.11
156.3153, 8975.840
156.7974, 7859.381
157.2795, 6830.803
157.7617, 5894.715
158.2438, 5035.021
158.7259, 4240.152
159.2080, 3515.154
159.6901, 2847.807
160.1722, 2240.297
160.6544, 1691.693
161.1365, 1184.475
161.6186, 717.2422
162.1007, 288.8086
162.5828, 110.8438
163.0649, 483.5410
163.5471, 825.5020
164.0292, 1135.094
164.5113, 1412.441
164.9934, 1659.037
165.4755, 1878.238
165.9576, 2067.115
166.4398, 2220.951
166.9219, 2337.123
167.4040, 2419.686
167.8861, 2475.641
168.3682, 2506.248
168.8503, 2494.168
169.3325, 2428.082
169.8146, 2310.697
170.2967, 2150.076
170.7788, 1930.260
171.2609, 1675.371
171.7430, 1411.783
172.2252, 1140.055
172.7073, 850.2676
173.1894, 531.6914
173.6715, 184.6387
174.1536, 172.9531
174.6357, 534.4082
175.1179, 910.3008
175.6000, 1315.564
176.0821, 1747.078
176.5642, 2203.410
177.0463, 2674.816
177.5284, 3169.371
178.0106, 3700.785
178.4927, 4264.793
178.9748, 4876.447
179.4569, 5540.986
179.9390, 6263.674
180.4211, 7049.936
180.9033, 7920.316
181.3854, 8877.102
181.8675, 9898.314
182.3496, 10968.97
182.8317, 12094.23
183.3138, 13351.46
183.7960, 14737.27
184.2781, 16249.49
184.7602, 17875.86
185.2423, 19624.26
185.7244, 21420.54
186.2065, 23306.75
186.6887, 25232.60
187.1708, 27075.78
187.6529, 28856.71
188.1350, 30471.00
188.6171, 31767.29
189.0992, 32753.97
189.5814, 33291.90
190.0635, 33291.93
190.5456, 32763.90
191.0277, 31750.90
191.5098, 30200.93
191.9919, 28257.99
192.4741, 26141.04
192.9562, 23847.04
193.4383, 21616.84
193.9204, 19583.72
194.4025, 17752.03
194.8846, 16199.78
195.3668, 14945.23
195.8489, 13964.96
196.3310, 13206.32
196.8131, 12668.61
197.2952, 12358.16
197.7773, 12287.04
198.2595, 12457.40
198.7416, 12836.47
199.2237, 13437.75
199.7058, 14225.10
200.1879, 15097.77
200.6700, 16067.53
201.1522, 17115.86
201.6343, 18246.29
202.1164, 19464.91
202.5985, 20706.07
203.0806, 21931.33
203.5627, 23177.44
204.0449, 24539.71
204.5270, 26019.17
205.0091, 27610.66
205.4912, 29297.61
205.9733, 31067.75
206.4554, 33002.00
206.9376, 35110.48
207.4197, 37382.68
207.9018, 39841.28
208.3839, 42453.12
208.8660, 45351.11
209.3481, 48563.29
209.8303, 52077.67
210.3124, 56027.30
210.7945, 60428.09
211.2766, 65261.87
211.7587, 70642.57
212.2408, 76630.31
212.7230, 83077.45
213.2051, 90014.71
213.6872, 97561.30
214.1693, 105280.2
214.6514, 113276.7
215.1335, 121401.3
215.6157, 128750.8
216.0978, 135751.6
216.5799, 141294.5
217.0620, 144818.9
217.5441, 146428.9
218.0262, 145612.6
218.5084, 142004.0
218.9905, 135849.2
219.4726, 128578.9
219.9547, 119657.6
220.4368, 110340.5
220.9189, 101419.8
221.4011, 92669.39
221.8832, 84733.46
222.3653, 77624.55
222.8474, 71365.51
223.3295, 65751.69
223.8116, 60957.20
224.2938, 56718.88
224.7759, 52928.45
225.2580, 49697.86
225.7401, 46727.25
226.2222, 44020.92
226.7043, 41560.31
227.1865, 39160.33
227.6686, 36882.93
228.1507, 34645.27
228.6328, 32428.01
229.1149, 30241.69
229.5970, 28065.05
230.0792, 25898.07
230.5613, 23743.09
231.0434, 21667.11
231.5255, 19686.59
232.0076, 17801.97
232.4897, 16027.05
232.9719, 14354.24
233.4540, 12788.96
233.9361, 11311.75
234.4182, 9933.816
234.9003, 8673.707
235.3824, 7544.195
235.8646, 6513.652
236.3467, 5565.738
236.8288, 4692.730
237.3109, 3918.715
237.7930, 3253.898
238.2751, 2683.590
238.7573, 2179.785
239.2394, 1729.223
239.7215, 1362.215
240.2036, 1093.023
240.6857, 942.7969
241.1678, 840.5742
241.6500, 780.8047
242.1321, 769.3906
242.6142, 823.8047
243.0963, 946.5273
243.5784, 1132.086
244.0605, 1383.062
244.5427, 1729.371
245.0248, 2067.289
245.5069, 2381.828
245.9890, 2696.273
246.4711, 3053.160
246.9532, 3457.215
247.4354, 3903.410
247.9175, 4384.809
248.3996, 4903.016
248.8817, 5462.105
249.3638, 6061.395
249.8459, 6703.121
250.3281, 7386.781
250.8102, 8097.812
251.2923, 8880.629
251.7744, 9760.410
252.2565, 10733.04
252.7386, 11780.71
253.2208, 12892.48
253.7029, 14086.98
254.1850, 15420.68
254.6671, 16926.97
255.1492, 18514.55
255.6313, 20153.15
256.1135, 21837.67
256.5956, 23570.48
257.0777, 25378.98
257.5598, 27184.92
258.0419, 28897.31
258.5240, 30535.78
259.0062, 31994.62
259.4883, 33263.71
259.9704, 34325.10
260.4525, 35127.75
260.9346, 35614.52
261.4167, 35902.73
261.8989, 36098.95
262.3810, 36159.67
262.8631, 36239.17
263.3452, 36350.17
263.8273, 36496.88
264.3094, 36778.05
264.7916, 37197.02
265.2737, 37753.62
265.7558, 38453.52
266.2379, 39289.59
266.7200, 40284.82
267.2021, 41469.43
267.6843, 42829.91
268.1664, 44269.92
268.6485, 45768.70
269.1306, 47381.71
269.6127, 49131.36
270.0948, 51004.13
270.5770, 53041.14
271.0591, 55244.26
271.5412, 57594.29
272.0233, 60083.58
272.5054, 62679.18
272.9875, 65394.05
273.4697, 68204.80
273.9518, 71124.70
274.4339, 74222.01
274.9160, 77513.05
275.3981, 80968.27
275.8802, 84578.67
276.3624, 88286.37
276.8445, 92173.84
277.3266, 96288.94
277.8087, 100635.6
278.2908, 105156.2
278.7729, 109822.5
279.2551, 114685.5
279.7372, 119764.9
280.2193, 125095.1
280.7014, 130549.7
281.1835, 136099.3
281.6656, 141745.1
282.1478, 147568.4
282.6299, 153584.7
283.1120, 159755.8
283.5941, 166055.8
284.0762, 172520.8
284.5583, 178970.3
285.0405, 185368.2
285.5226, 191721.9
286.0047, 198101.5
286.4868, 204512.8
286.9689, 210932.4
287.4510, 217334.0
287.9332, 223716.0
288.4153, 230132.5
288.8974, 236516.5
289.3795, 242882.4
289.8616, 249114.2
290.3438, 255219.8
290.8259, 261122.6
291.3080, 266847.6
291.7901, 272310.3
292.2722, 277338.5
292.7543, 281848.8
293.2365, 285844.8
293.7186, 289348.0
294.2007, 292331.7
294.6828, 294663.0
295.1649, 296235.8
295.6470, 297043.7
296.1292, 297116.6
296.6113, 296478.9
297.0934, 295089.7
297.5755, 292862.3
298.0576, 289788.3
298.5397, 285947.7
299.0219, 281238.0
299.5040, 275765.2
299.9861, 269796.9
300.4682, 263334.5
300.9503, 256528.0
301.4324, 249412.0
301.9146, 242064.0
302.3967, 234484.4
302.8788, 226675.3
303.3609, 218688.3
303.8430, 210701.1
304.3251, 202711.2
304.8073, 194832.5
305.2894, 187012.0
305.7715, 179351.5
306.2536, 171874.4
306.7357, 164694.3
307.2178, 157713.7
307.7000, 150932.2
308.1821, 144330.9
308.6642, 137948.0
309.1463, 131714.2
309.6284, 125693.3
310.1105, 119868.7
310.5927, 114287.7
311.0748, 108956.1
311.5569, 103835.8
312.0390, 98929.09
312.5211, 94212.27
313.0032, 89633.73
313.4854, 85190.76
313.9675, 80943.77
314.4496, 76938.07
314.9317, 73124.32
315.4138, 69444.87
315.8959, 65917.55
316.3781, 62528.51
316.8602, 59309.01
317.3423, 56241.96
317.8244, 53327.79
318.3065, 50598.80
318.7886, 47982.71
319.2708, 45476.95
319.7529, 43082.88
320.2350, 40815.85
320.7171, 38651.87
321.1992, 36619.29
321.6813, 34693.09
322.1635, 32878.35
322.6456, 31151.04
323.1277, 29517.50
323.6098, 27966.13
324.0919, 26470.55
324.5740, 25055.97
325.0562, 23690.50
325.5383, 22369.89
326.0204, 21097.54
326.5025, 19855.39
326.9846, 18626.35
327.4667, 17438.29
327.9489, 16303.52
328.4310, 15226.30
328.9131, 14196.30
329.3952, 13209.91
329.8773, 12267.84
330.3594, 11345.40
330.8416, 10437.28
331.3237, 9565.379
331.8058, 8748.738
332.2879, 7989.109
332.7700, 7276.107
333.2521, 6601.363
333.7343, 5963.766
334.2164, 5356.723
334.6985, 4790.555
335.1806, 4250.994
335.6627, 3726.105
336.1448, 3211.420
336.6270, 2743.627
337.1091, 2333.045
337.5912, 1970.014
338.0733, 1628.020
338.5554, 1312.354
339.0375, 1016.867
339.5197, 739.5352
340.0018, 484.5586
340.4839, 239.8613
340.9660, 10.05273
341.4481, 202.2773
341.9302, 381.4023
342.4124, 528.8008
342.8945, 665.7441
343.3766, 810.0254
343.8587, 949.8770
344.3408, 1035.525
344.8229, 1059.879
345.3051, 1068.193
345.7872, 1105.412
346.2693, 1164.816
346.7514, 1209.881
347.2335, 1229.578
347.7156, 1232.510
348.1978, 1228.496
348.6799, 1217.561
349.1620, 1201.291
349.6441, 1184.592
350.1262, 1161.783
350.6083, 1115.658
351.0905, 1040.527
351.5726, 960.0664
352.0547, 910.4004
352.5368, 881.0840
353.0189, 839.3398
353.5010, 759.3340
353.9832, 664.3242
354.4653, 580.0020
354.9474, 508.4121
355.4295, 442.9941
355.9116, 387.5645
356.3937, 334.2832
356.8759, 269.7695
357.3580, 175.1504
357.8401, 84.56055
358.3222, 22.55859
358.8043, 14.33789
359.2864, 47.13086
359.7686, 83.10156
360.2507, 119.4238
360.7328, 155.7773
361.2149, 192.7578
361.6970, 225.3574
362.1791, 254.7695
362.6613, 278.7168
363.1434, 292.7168
363.6255, 283.9648
364.1076, 274.7656
364.5897, 274.7734
365.0718, 290.4180
365.5540, 305.1348
366.0361, 320.7266
366.5182, 333.2285
367.0003, 337.7715
367.4824, 327.4512
367.9645, 316.0469
368.4467, 304.1250
368.9288, 293.7559
369.4109, 288.3516
369.8930, 290.1641
370.3751, 296.3340
370.8572, 304.9883
371.3394, 323.3867
371.8215, 334.1211
372.3036, 332.0801
372.7857, 321.5586
373.2678, 315.9941
373.7499, 311.5469
374.2321, 316.1855
374.7142, 337.0918
375.1963, 378.8965
375.6784, 411.9863
376.1605, 431.1523
376.6426, 449.3027
377.1248, 494.3828
377.6069, 572.0762
378.0890, 637.4043
378.5711, 670.3516
379.0532, 676.4141
379.5353, 701.3574
380.0175, 746.6895
380.4996, 800.3223
380.9817, 851.4961
381.4638, 900.8809
381.9459, 951.4531
382.4280, 1003.709
382.9102, 1058.188
383.3923, 1118.809
383.8744, 1184.516
384.3565, 1248.784
384.8386, 1306.761
385.3207, 1360.350
385.8029, 1413.838
386.2850, 1466.818
386.7671, 1521.982
387.2492, 1584.677
387.7313, 1651.527
388.2134, 1715.431
388.6956, 1770.662
389.1777, 1823.682
389.6598, 1881.133
390.1419, 1943.022
390.6240, 2003.703
391.1061, 2064.237
391.5883, 2119.944
392.0704, 2165.921
392.5525, 2200.699
393.0346, 2226.211
393.5167, 2240.512
393.9988, 2245.459
394.4810, 2245.576
394.9631, 2241.780
395.4452, 2233.980
395.9273, 2223.633
396.4094, 2213.907
396.8915, 2191.541
397.3737, 2151.765
397.8558, 2098.484
398.3379, 2036.525
398.8200, 1958.381
399.3021, 1875.406
399.7842, 1788.179
400.2664, 1696.542
400.7485, 1601.402
401.2306, 1505.186
401.7127, 1402.786
402.1948, 1293.214
402.6769, 1175.224
403.1591, 1059.573
403.6412, 943.7568
404.1233, 829.5801
404.6054, 721.0186
405.0875, 621.1885
405.5696, 526.4043
406.0518, 437.2637
406.5339, 354.4922
407.0160, 266.3477
407.4981, 171.9326
407.9802, 78.27734
408.4623, 6.348633
408.9445, 80.84082
409.4266, 144.9404
409.9087, 200.3408
410.3908, 247.3066
410.8729, 280.1270
411.3550, 297.3857
411.8372, 309.2930
412.3193, 324.8008
412.8014, 341.9746
413.2835, 357.5830
413.7656, 373.7500
414.2477, 381.3350
414.7299, 363.7783
415.2120, 327.5986
415.6941, 292.0771
416.1762, 273.6934
416.6583, 258.4961
417.1404, 234.5420
417.6226, 201.5303
418.1047, 161.5732
418.5868, 116.9619
419.0689, 65.61523
419.5510, 4.117188
420.0331, 78.67383
420.5153, 156.9463
420.9974, 214.3652
421.4795, 258.1152
421.9616, 306.0576
422.4437, 369.7656
422.9258, 434.6953
423.4080, 494.0049
423.8901, 546.0244
424.3722, 600.2744
424.8543, 650.7080
425.3364, 706.6152
425.8185, 777.7002
426.3007, 876.2275
426.7828, 973.3340
427.2649, 1064.417
427.7470, 1150.583
428.2291, 1241.149
428.7112, 1337.954
429.1934, 1435.167
429.6755, 1530.312
430.1576, 1620.756
430.6397, 1715.032
431.1218, 1814.104
431.6039, 1915.826
432.0861, 2018.630
432.5682, 2123.098
433.0503, 2233.036
433.5324, 2351.997
434.0145, 2476.706
434.4966, 2596.205
434.9788, 2711.493
435.4609, 2832.070
435.9430, 2967.716
436.4251, 3114.315
436.9072, 3261.871
437.3893, 3411.215
437.8715, 3560.832
438.3536, 3706.476
438.8357, 3850.053
439.3178, 3997.394
439.7999, 4158.992
440.2820, 4321.537
440.7642, 4471.131
441.2463, 4608.504
441.7284, 4737.271
442.2105, 4862.674
442.6926, 4980.037
443.1747, 5085.014
443.6569, 5182.693
444.1390, 5260.227
444.6211, 5311.951
445.1032, 5340.131
445.5853, 5348.787
446.0674, 5334.135
446.5496, 5304.922
447.0317, 5263.385
447.5138, 5207.887
447.9959, 5146.811
448.4780, 5078.721
448.9601, 5006.518
449.4423, 4931.551
449.9244, 4851.044
450.4065, 4775.135
450.8886, 4705.204
451.3707, 4641.129
451.8528, 4580.854
452.3350, 4523.735
452.8171, 4471.123
453.2992, 4418.650
453.7813, 4365.723
454.2634, 4337.146
454.7455, 4335.477
455.2277, 4349.429
455.7098, 4365.717
456.1919, 4384.402
456.6740, 4412.201
457.1561, 4451.215
457.6382, 4499.262
458.1204, 4546.434
458.6025, 4595.396
459.0846, 4658.334
459.5667, 4754.785
460.0488, 4866.988
460.5309, 4972.654
461.0131, 5067.076
461.4952, 5160.254
461.9773, 5247.494
462.4594, 5338.538
462.9415, 5450.391
463.4236, 5598.488
463.9058, 5757.541
464.3879, 5920.059
464.8700, 6083.257
465.3521, 6253.769
465.8342, 6440.754
466.3163, 6631.486
466.7985, 6817.408
467.2806, 6974.268
467.7627, 7171.232
468.2448, 7419.342
468.7269, 7702.359
469.2090, 8000.117
469.6912, 8306.998
470.1733, 8647.127
470.6554, 9028.684
471.1375, 9449.531
471.6196, 9887.580
472.1017, 10341.78
472.5839, 10820.89
473.0660, 11344.90
473.5481, 11911.33
474.0302, 12498.87
474.5123, 13101.23
474.9944, 13737.47
475.4766, 14440.37
475.9587, 15205.99
476.4408, 16008.93
476.9229, 16832.10
477.4050, 17681.86
477.8871, 18555.20
478.3693, 19454.26
478.8514, 20401.43
479.3335, 21407.84
479.8156, 22478.31
480.2977, 23605.09
480.7798, 24776.54
481.2620, 26023.67
481.7441, 27358.77
482.2262, 28779.73
482.7083, 30283.31
483.1904, 31870.78
483.6725, 33544.70
484.1547, 35296.35
484.6368, 37117.68
485.1189, 39019.03
485.6010, 41026.73
486.0831, 43101.67
486.5652, 45203.72
487.0474, 47338.53
487.5295, 49524.38
488.0116, 51781.25
488.4937, 54047.70
488.9758, 56261.78
489.4579, 58425.07
489.9401, 60545.56
490.4222, 62634.16
490.9043, 64686.23
491.3864, 66761.15
491.8685, 68863.16
492.3506, 71016.57
492.8328, 73233.62
493.3149, 75508.88
493.7970, 77872.84
494.2791, 80338.77
494.7612, 82878.62
495.2433, 85526.19
495.7255, 88253.86
496.2076, 91022.52
496.6897, 93873.45
497.1718, 96710.63
497.6539, 99449.32
498.1360, 102064.5
498.6182, 104521.9
499.1003, 106816.0
499.5824, 108918.7
500.0645, 110785.1
500.5466, 112473.3
501.0287, 113787.3
501.5109, 114702.0
501.9930, 115202.5
502.4751, 115260.1
502.9572, 114815.6
503.4393, 113982.6
503.9214, 112769.8
504.4036, 111189.0
504.8857, 109233.3
505.3678, 106811.3
505.8499, 104133.8
506.3320, 101252.5
506.8141, 98159.50
507.2963, 94991.23
507.7784, 91692.40
508.2605, 88360.87
508.7426, 85011.17
509.2247, 81650.26
509.7068, 78379.94
510.1890, 75236.88
510.6711, 72169.51
511.1532, 69128.64
511.6353, 66117.94
512.1174, 63237.96
512.5995, 60517.79
513.0817, 57936.08
513.5638, 55472.30
514.0459, 53125.50
514.5280, 50888.84
515.0101, 48759.41
515.4922, 46730.05
515.9744, 44821.49
516.4565, 43040.70
516.9386, 41344.63
517.4207, 39718.05
517.9028, 38168.24
518.3849, 36706.83
518.8671, 35365.00
519.3492, 34082.28
519.8313, 32822.46
520.3134, 31598.99
520.7955, 30454.53
521.2776, 29409.12
521.7598, 28408.08
522.2419, 27431.28
522.7240, 26471.01
523.2061, 25548.91
523.6882, 24663.51
524.1703, 23812.59
524.6525, 22994.33
525.1346, 22205.13
525.6167, 21436.85
526.0988, 20699.04
526.5809, 19979.86
527.0630, 19252.68
527.5452, 18525.98
528.0273, 17832.11
528.5094, 17196.01
528.9915, 16595.31
529.4736, 15992.77
529.9557, 15382.58
530.4379, 14797.02
530.9200, 14264.66
531.4021, 13754.03
531.8842, 13230.99
532.3663, 12669.11
532.8484, 12120.15
533.3306, 11608.76
533.8127, 11118.86
534.2948, 10630.06
534.7769, 10122.12
535.2590, 9629.047
535.7411, 9161.635
536.2233, 8721.146
536.7054, 8274.982
537.1875, 7814.982
537.6696, 7373.389
538.1517, 6971.742
538.6339, 6616.771
539.1160, 6257.027
539.5981, 5887.234
540.0802, 5525.273
540.5623, 5187.262
541.0444, 4871.240
541.5266, 4556.895
542.0087, 4230.785
542.4908, 3911.105
542.9729, 3631.861
543.4550, 3388.934
543.9371, 3156.984
544.4193, 2918.355
544.9014, 2684.424
545.3835, 2461.896
545.8656, 2251.084
546.3477, 2056.707
546.8298, 1894.971
547.3120, 1739.551
547.7941, 1569.680
548.2762, 1356.062
548.7583, 1161.531
549.2404, 997.4785
549.7225, 852.8145
550.2047, 708.8047
550.6868, 561.7676
551.1689, 421.6973
551.6510, 290.8691
552.1331, 169.6367
552.6152, 68.32422
553.0974, 8.492188
553.5795, 86.62305
554.0616, 191.3945
554.5437, 314.9297
555.0258, 411.6387
555.5079, 477.8965
555.9901, 526.0078
556.4722, 563.8184
556.9543, 594.2891
557.4364, 625.3164
557.9185, 666.9707
558.4006, 697.4316
558.8828, 696.1152
559.3649, 671.0352
559.8470, 640.5762
560.3291, 614.2207
560.8112, 583.1348
561.2933, 540.9336
561.7755, 487.6895
562.2576, 438.2031
562.7397, 405.2949
563.2218, 368.8789
563.7039, 319.7578
564.1860, 258.3164
564.6682, 180.9512
565.1503, 81.51367
565.6324, 27.74414
566.1145, 128.8320
566.5966, 221.4062
567.0787, 320.7070
567.5609, 430.8164
568.0430, 549.5371
568.5251, 669.2656
569.0072, 791.4492
569.4893, 917.5234
569.9714, 1048.840
570.4536, 1187.178
570.9357, 1334.406
571.4178, 1490.367
571.8999, 1656.387
572.3820, 1830.418
572.8641, 2014.641
573.3463, 2209.535
573.8284, 2420.047
574.3105, 2634.061
574.7926, 2841.047
575.2747, 3050.250
575.7568, 3273.064
576.2390, 3514.590
576.7211, 3767.518
577.2032, 4030.857
577.6853, 4305.850
578.1674, 4588.613
578.6495, 4874.775
579.1317, 5171.836
579.6138, 5488.174
580.0959, 5822.809
580.5780, 6144.904
581.0601, 6453.260
581.5422, 6777.203
582.0244, 7152.680
582.5065, 7564.053
582.9886, 7959.297
583.4707, 8331.445
583.9528, 8723.020
584.4349, 9187.750
584.9171, 9693.793
585.3992, 10194.24
585.8813, 10670.08
586.3634, 11143.13
586.8455, 11605.26
587.3276, 12069.48
587.8098, 12555.21
588.2919, 13081.63
588.7740, 13614.43
589.2561, 14146.27
589.7382, 14677.08
590.2203, 15197.48
590.7025, 15698.16
591.1846, 16195.18
591.6667, 16710.77
592.1488, 17252.62
592.6309, 17723.88
593.1130, 18119.38
593.5952, 18462.92
594.0773, 18788.87
594.5594, 19090.26
595.0415, 19335.89
595.5236, 19527.09
596.0057, 19648.16
596.4879, 19673.15
596.9700, 19613.83
597.4521, 19496.39
597.9342, 19339.64
598.4163, 19120.86
598.8984, 18823.20
599.3806, 18448.46
599.8627, 18024.83
600.3448, 17528.12
600.8269, 17008.98
601.3090, 16486.89
601.7911, 15963.04
602.2733, 15420.74
602.7554, 14849.80
603.2375, 14275.47
603.7196, 13727.88
604.2017, 13202.54
604.6838, 12702.83
605.1660, 12226.06
605.6481, 11771.82
606.1302, 11347.33
606.6123, 10950.52
607.0944, 10573.13
607.5765, 10207.60
608.0587, 9859.949
608.5408, 9535.766
609.0229, 9233.369
609.5050, 8934.104
609.9871, 8621.326
610.4692, 8318.061
610.9514, 8046.154
611.4335, 7805.465
611.9156, 7549.107
612.3977, 7259.359
612.8798, 6955.078
613.3619, 6651.525
613.8441, 6343.113
614.3262, 6042.895
614.8083, 5754.701
615.2904, 5468.123
615.7725, 5171.947
616.2546, 4865.900
616.7368, 4568.531
617.2189, 4281.814
617.7010, 4004.143
618.1831, 3735.467
618.6652, 3475.342
619.1473, 3219.281
619.6295, 2958.275
620.1116, 2708.314
620.5937, 2491.467
621.0758, 2303.314
621.5579, 2114.473
622.0400, 1904.131
622.5222, 1699.566
623.0043, 1516.945
623.4864, 1358.893
623.9685, 1211.049
624.4506, 1077.357
624.9327, 948.2559
625.4149, 815.3223
625.8970, 673.4688
626.3791, 547.5898
626.8612, 439.8477
627.3433, 346.0039
627.8254, 260.0977
628.3076, 182.2422
628.7897, 116.1250
629.2718, 64.06641
629.7539, 21.66016
630.2360, 12.55664
630.7181, 41.51367
631.2003, 73.85156
631.6824, 124.0820
632.1645, 171.4824
632.6466, 196.5059
633.1287, 202.1855
633.6108, 207.3535
634.0930, 220.4121
634.5751, 233.4648
635.0572, 246.8789
635.5393, 266.3867
636.0214, 254.6641
636.5035, 190.4922
636.9857, 121.0176
637.4678, 86.86328
637.9499, 95.58984
638.4320, 85.82617
638.9141, 52.64453
639.3962, 3.988281
639.8784, 53.46289
640.3605, 118.1211
640.8426, 184.2246
641.3247, 248.4160
641.8068, 316.0527
642.2889, 394.4023
642.7711, 480.9434
643.2532, 571.3828
643.7353, 666.4746
644.2174, 761.6270
644.6995, 855.1465
645.1816, 946.7891
645.6638, 1037.289
646.1459, 1119.586
646.6280, 1208.000
647.1101, 1309.074
647.5922, 1422.684
648.0743, 1536.908
648.5565, 1649.418
649.0386, 1766.363
649.5207, 1893.621
650.0028, 2029.082
650.4849, 2154.836
650.9670, 2267.283
651.4492, 2378.490
651.9313, 2506.721
652.4134, 2641.039
652.8955, 2756.410
653.3776, 2838.791
653.8597, 2923.211
654.3419, 3043.828
654.8240, 3178.533
655.3061, 3291.656
655.7882, 3358.707
656.2703, 3421.137
656.7524, 3484.988
657.2346, 3551.461
657.7167, 3625.355
658.1988, 3713.896
658.6809, 3794.051
659.1630, 3856.611
659.6451, 3904.156
660.1273, 3952.684
660.6094, 4002.713
661.0915, 4046.170
661.5736, 4067.213
662.0557, 4080.684
662.5378, 4120.344
663.0200, 4187.504
663.5021, 4254.488
663.9842, 4302.230
664.4663, 4340.207
664.9484, 4374.541
665.4305, 4401.072
665.9127, 4440.107
666.3948, 4504.293
666.8769, 4579.785
667.3590, 4651.697
667.8411, 4711.646
668.3232, 4786.074
668.8054, 4880.484
669.2875, 4985.723
669.7696, 5083.199
670.2517, 5172.699
670.7338, 5272.857
671.2159, 5390.240
671.6981, 5518.750
672.1802, 5647.682
672.6623, 5777.912
673.1444, 5914.271
673.6265, 6058.195
674.1086, 6207.984
674.5908, 6360.691
675.0729, 6516.973
675.5550, 6687.326
676.0371, 6897.324
676.5192, 7101.680
677.0013, 7282.516
677.4835, 7438.787
677.9656, 7588.312
678.4477, 7731.121
678.9298, 7869.051
679.4119, 8007.537
679.8940, 8147.271
680.3762, 8253.031
680.8583, 8323.305
681.3404, 8368.387
681.8225, 8401.205
682.3046, 8416.068
682.7867, 8401.418
683.2689, 8355.281
683.7510, 8277.166
684.2331, 8158.637
684.7152, 8012.629
685.1973, 7858.697
685.6794, 7708.045
686.1616, 7537.965
686.6437, 7347.334
687.1258, 7132.939
687.6079, 6885.076
688.0900, 6590.242
688.5721, 6306.600
689.0543, 6050.076
689.5364, 5814.842
690.0185, 5586.631
690.5006, 5367.121
690.9827, 5146.953
691.4648, 4915.307
691.9470, 4680.078
692.4291, 4442.785
692.9112, 4206.367
693.3933, 3987.625
693.8754, 3803.650
694.3575, 3638.484
694.8397, 3479.771
695.3218, 3323.453
695.8039, 3177.746
696.2860, 3048.898
696.7681, 2929.396
697.2502, 2815.398
697.7324, 2708.400
698.2145, 2604.215
698.6966, 2501.164
699.1787, 2403.672
699.6608, 2312.994
700.1429, 2231.342
700.6251, 2167.406
701.1072, 2123.373
701.5893, 2085.164
702.0714, 2037.850
702.5535, 1987.535
703.0356, 1943.432
703.5178, 1912.248
703.9999, 1881.172
704.4820, 1841.125
704.9641, 1799.393
705.4462, 1766.836
705.9283, 1748.578
706.4105, 1732.467
706.8926, 1720.176
707.3747, 1707.371
707.8568, 1679.863
708.3389, 1635.857
708.8210, 1600.846
709.3032, 1589.219
709.7853, 1586.496
710.2674, 1564.385
710.7495, 1525.242
711.2316, 1480.180
711.7137, 1426.918
712.1959, 1376.936
712.6780, 1345.254
713.1601, 1327.922
713.6422, 1297.652
714.1243, 1223.543
714.6064, 1157.016
715.0886, 1123.930
715.5707, 1125.344
716.0528, 1106.051
716.5349, 1059.282
717.0170, 1008.462
717.4991, 969.7988
717.9813, 941.3955
718.4634, 903.5166
718.9455, 855.7803
719.4276, 803.0156
719.9097, 742.5049
720.3918, 682.2275
720.8740, 634.6855
721.3561, 601.8857
721.8382, 576.2900
722.3203, 562.8789
722.8024, 549.3525
723.2845, 524.3389
723.7667, 479.7822
724.2488, 433.8906
724.7309, 381.4219
725.2130, 332.1992
725.6951, 300.0039
726.1772, 286.3926
726.6594, 269.6182
727.1415, 248.4668
727.6236, 219.4131
728.1057, 170.4893
728.5878, 109.4658
729.0699, 55.18457
729.5521, 11.44922
730.0342, 19.71973
730.5163, 28.27637
730.9984, 24.77344
731.4805, 28.00000
731.9626, 47.98633
732.4448, 68.75195
732.9269, 88.52734
733.4090, 106.9111
733.8911, 121.8516
734.3732, 132.8164
734.8553, 141.2793
735.3375, 147.1250
735.8196, 151.2148
736.3017, 158.7588
736.7838, 168.0537
737.2659, 168.5391
737.7480, 142.3076
738.2302, 113.7021
738.7123, 111.1602
739.1944, 128.9385
739.6765, 137.1855
740.1586, 120.4424
740.6407, 96.20898
741.1229, 70.98535
741.6050, 44.91504
742.0871, 16.88379
742.5692, 13.60938
743.0513, 45.15723
743.5334, 75.79102
744.0156, 106.4531
744.4977, 143.7080
744.9798, 187.6582
745.4619, 238.1377
745.9440, 300.5830
746.4261, 366.1240
746.9083, 423.4072
747.3904, 471.3057
747.8725, 517.7744
748.3546, 557.6006
748.8367, 603.1641
749.3188, 664.5889
749.8010, 745.8398
750.2831, 826.8408
750.7652, 909.2031
751.2473, 988.5273
751.7294, 1060.248
752.2115, 1124.059
752.6937, 1191.977
753.1758, 1264.611
753.6579, 1344.149
754.1400, 1439.746
754.6221, 1541.724
755.1042, 1632.021
755.5864, 1701.466
756.0685, 1780.885
756.5506, 1898.849
757.0327, 2028.856
757.5148, 2141.477
757.9969, 2219.397
758.4791, 2303.187
758.9612, 2390.164
759.4433, 2485.786
759.9254, 2596.801
760.4075, 2724.329
760.8896, 2856.351
761.3718, 2991.464
761.8539, 3128.529
762.3360, 3267.545
762.8181, 3407.139
763.3002, 3544.367
763.7823, 3680.280
764.2645, 3812.606
764.7466, 3938.959
765.2287, 4060.873
765.7108, 4183.817
766.1929, 4304.076
766.6750, 4432.367
767.1572, 4577.545
767.6393, 4725.101
768.1214, 4845.064
768.6035, 4934.992
769.0856, 5031.740
769.5677, 5144.617
770.0499, 5269.839
770.5320, 5411.297
771.0141, 5560.485
771.4962, 5695.877
771.9783, 5800.369
772.4604, 5896.988
772.9426, 5994.996
773.4247, 6093.422
773.9068, 6189.434
774.3889, 6284.883
774.8710, 6374.837
775.3531, 6458.222
775.8353, 6535.811
776.3174, 6611.037
776.7995, 6683.889
777.2816, 6747.222
777.7637, 6792.295
778.2458, 6833.384
778.7280, 6904.084
779.2101, 6993.096
779.6922, 7063.062
780.1743, 7086.059
780.6564, 7095.908
781.1385, 7105.723
781.6207, 7116.219
782.1028, 7130.020
782.5849, 7160.762
783.0670, 7172.261
783.5491, 7147.498
784.0313, 7097.762
784.5134, 7070.946
784.9955, 7066.840
785.4776, 7057.487
785.9597, 7027.287
786.4418, 6984.443
786.9240, 6946.393
787.4061, 6908.743
787.8882, 6855.118
788.3703, 6772.133
788.8524, 6680.391
789.3345, 6587.348
789.8167, 6492.379
790.2988, 6400.604
790.7809, 6312.696
791.2630, 6226.841
791.7451, 6144.838
792.2272, 6064.578
792.7094, 5963.814
793.1915, 5844.430
793.6736, 5725.783
794.1557, 5627.908
794.6378, 5532.140
795.1199, 5412.133
795.6021, 5276.005
796.0842, 5145.941
796.5663, 5032.725
797.0484, 4924.009
797.5305, 4823.003
798.0126, 4728.598
798.4948, 4613.698
798.9769, 4468.656
799.4590, 4328.607
799.9411, 4212.615
800.4232, 4111.926
800.9053, 3996.062
801.3875, 3867.383
801.8696, 3750.005
802.3517, 3665.999
802.8338, 3592.723
803.3159, 3511.316
803.7980, 3421.293
804.2802, 3326.289
804.7623, 3215.723
805.2444, 3112.658
805.7265, 3028.042
806.2086, 2959.544
806.6907, 2888.976
807.1729, 2817.134
807.6550, 2736.880
808.1371, 2638.214
808.6192, 2530.303
809.1013, 2439.029
809.5834, 2362.189
810.0656, 2286.915
810.5477, 2204.375
811.0298, 2122.139
811.5119, 2041.416
811.9940, 1963.686
812.4761, 1897.881
812.9583, 1859.176
813.4404, 1815.046
813.9225, 1753.457
814.4046, 1678.499
814.8867, 1609.453
815.3688, 1547.188
815.8510, 1487.705
816.3331, 1427.535
816.8152, 1369.355
817.2973, 1318.408
817.7794, 1274.902
818.2615, 1239.362
818.7437, 1222.438
819.2258, 1201.900
819.7079, 1162.962
820.1900, 1109.036
820.6721, 1066.593
821.1542, 1040.469
821.6364, 1014.590
822.1185, 983.3213
822.6006, 946.9521
823.0827, 904.6055
823.5648, 858.4893
824.0469, 816.3350
824.5291, 777.4727
825.0112, 746.4082
825.4933, 734.4072
825.9754, 733.9297
826.4575, 720.9893
826.9396, 670.6133
827.4218, 629.4209
827.9039, 615.1914
828.3860, 619.1787
828.8681, 609.8857
829.3502, 582.5225
829.8323, 560.5527
830.3145, 555.6064
830.7966, 557.1914
831.2787, 544.1455
831.7608, 519.6865
832.2429, 494.5020
832.7250, 471.8486
833.2072, 450.8027
833.6893, 430.1299
834.1714, 410.6396
834.6535, 394.8232
835.1356, 384.6299
835.6177, 374.8604
836.0999, 364.8633
836.5820, 354.3086
837.0641, 340.0186
837.5462, 322.8076
838.0283, 312.0303
838.5104, 312.6562
838.9926, 317.2246
839.4747, 317.2764
839.9568, 315.4492
840.4389, 316.0566
840.9210, 324.3750
841.4031, 330.6660
841.8853, 334.2598
842.3674, 333.8760
842.8495, 326.4775
843.3316, 310.2725
843.8137, 294.2637
844.2958, 277.9512
844.7780, 267.0645
845.2601, 275.3350
845.7422, 295.3271
846.2243, 308.7637
846.7064, 309.9785
847.1885, 305.8262
847.6707, 294.3340
848.1528, 282.4248
848.6349, 278.9463
849.1170, 297.8496
849.5991, 299.9971
850.0812, 277.0146
850.5634, 249.8799
851.0455, 244.0469
851.5276, 256.6719
852.0097, 265.2705
852.4918, 266.7920
852.9739, 265.2490
853.4561, 264.4434
853.9382, 262.5059
854.4203, 256.0752
854.9024, 241.2539
855.3845, 232.8740
855.8666, 235.0508
856.3488, 242.6885
856.8309, 254.5635
857.3130, 271.7842
857.7951, 281.1904
858.2772, 281.7861
858.7593, 280.6758
859.2415, 288.7920
859.7236, 297.5713
860.2057, 289.0889
860.6878, 262.0967
861.1699, 237.2100
861.6520, 222.4893
862.1342, 214.3340
862.6163, 213.2783
863.0984, 219.9131
863.5805, 217.7100
864.0626, 204.8398
864.5447, 189.5254
865.0269, 177.6035
865.5090, 166.8750
865.9911, 147.9795
866.4732, 122.7070
866.9553, 101.4365
867.4374, 93.22852
867.9196, 89.38184
868.4017, 85.76562
868.8838, 81.90137
869.3659, 76.54883
869.8480, 69.72656
870.3301, 61.10547
870.8123, 49.06445
871.2944, 35.26270
871.7765, 24.37207
872.2586, 16.71094
872.7407, 13.59668
873.2228, 22.42188
873.7050, 28.62500
874.1871, 12.75684
874.6692, 16.54395
875.1513, 41.20410
875.6334, 57.51660
876.1155, 64.48828
876.5977, 56.68750
877.0798, 43.54688
877.5619, 43.02246
878.0440, 55.88574
878.5261, 70.37207
879.0082, 86.68945
879.4904, 97.54785
879.9725, 86.30273
880.4546, 65.37695
880.9367, 57.85059
881.4188, 77.75879
881.9009, 94.68359
882.3831, 99.15430
882.8652, 94.83398
883.3473, 83.82910
883.8294, 62.39453
884.3115, 49.26758
884.7936, 45.70020
885.2758, 47.68262
885.7579, 57.28320
886.2400, 68.02344
886.7221, 62.73047
887.2042, 38.42578
887.6863, 13.73535
888.1685, 8.7890001E-03
888.6506, 10.75293
889.1327, 24.61914
889.6148, 42.61035
890.0969, 55.87402
890.5790, 60.83691
891.0612, 69.45996
891.5433, 92.96289
892.0254, 125.5059
892.5075, 142.5996
892.9896, 146.1689
893.4717, 153.1787
893.9539, 180.3965
894.4360, 208.6270
894.9181, 222.1279
895.4002, 223.6914
895.8823, 233.8945
896.3644, 255.9102
896.8466, 283.5166
897.3287, 318.5381
897.8108, 355.4990
898.2929, 378.5098
898.7750, 389.3838
899.2571, 398.8652
899.7393, 409.8643
900.2214, 423.1211
900.7035, 442.8525
901.1856, 464.3008
901.6677, 479.5977
902.1498, 473.7822
902.6320, 480.7969
903.1141, 507.1494
903.5962, 542.6426
904.0783, 575.5059
904.5604, 605.8701
905.0425, 624.4668
905.5247, 628.4619
906.0068, 630.5117
906.4889, 640.1963
906.9710, 655.5205
907.4531, 675.6074
907.9352, 703.0684
908.4174, 724.9502
908.8995, 740.6055
909.3816, 749.3027
909.8637, 746.9102
910.3458, 733.3652
910.8279, 736.2852
911.3101, 755.9111
911.7922, 780.9453
912.2743, 813.9297
912.7564, 840.5732
913.2385, 836.4795
913.7206, 806.5293
914.2028, 790.5322
914.6849, 818.3701
915.1670, 840.6855
915.6491, 841.6465
916.1312, 826.4062
916.6133, 813.9141
917.0955, 803.9600
917.5776, 794.7666
918.0597, 783.7959
918.5418, 776.3164
919.0239, 782.9580
919.5060, 797.0020
919.9882, 806.0996
920.4703, 806.3672
920.9524, 798.7891
921.4345, 775.3457
921.9166, 751.6533
922.3987, 751.6152
922.8809, 777.6489
923.3630, 781.3232
923.8451, 754.4512
924.3272, 720.0933
924.8093, 703.3301
925.2914, 694.1973
925.7736, 679.9268
926.2557, 657.5225
926.7378, 636.1016
927.2199, 618.2622
927.7020, 602.8672
928.1841, 589.9897
928.6663, 579.8423
929.1484, 569.7642
929.6305, 559.6553
930.1126, 547.2812
930.5947, 526.3955
931.0768, 505.0591
931.5590, 496.9492
932.0411, 498.3911
932.5232, 494.8774
933.0053, 476.1782
933.4874, 457.1021
933.9695, 443.2886
934.4517, 432.3789
934.9338, 414.0400
935.4159, 387.5098
935.8980, 364.6851
936.3801, 350.2725
936.8622, 339.2534
937.3444, 329.9297
937.8265, 321.4263
938.3086, 310.1675
938.7907, 290.5435
939.2728, 273.3501
939.7549, 263.5054
940.2371, 255.3101
940.7192, 243.4028
941.2013, 228.0767
941.6834, 214.5811
942.1655, 202.6475
942.6476, 190.0884
943.1298, 170.4834
943.6119, 152.3052
944.0940, 147.4121
944.5761, 156.6260
945.0582, 163.8887
945.5403, 167.4917
946.0225, 164.4521
946.5046, 150.2412
946.9867, 129.1934
947.4688, 122.3745
947.9509, 128.6885
948.4330, 127.3896
948.9152, 103.8057
949.3973, 77.21436
949.8794, 63.03418
950.3615, 59.75098
950.8436, 64.61523
951.3257, 91.92334
951.8079, 105.4878
952.2900, 99.49707
952.7721, 84.75098
953.2542, 72.04150
953.7363, 61.62256
954.2184, 56.70166
954.7006, 57.99072
955.1827, 60.08887
955.6648, 60.90479
956.1469, 58.60938
956.6290, 49.20850
957.1111, 30.63623
957.5933, 23.97852
958.0754, 37.30371
958.5575, 47.66748
959.0396, 43.63672
959.5217, 28.68848
960.0038, 8.964355
960.4860, 12.84766
960.9681, 22.84326
961.4502, 0.1386720
961.9323, 23.40723
962.4144, 24.80908
962.8965, 12.92969
963.3787, 7.968262
963.8608, 14.14844
964.3429, 17.64746
964.8250, 15.91455
965.3071, 12.84961
965.7892, 15.71484
966.2714, 21.44287
966.7535, 20.42676
967.2356, 9.836914
967.7177, 2.597656
968.1998, 8.452637
968.6819, 18.67871
969.1641, 28.97168
969.6462, 39.60352
970.1283, 39.14160
970.6104, 25.66943
971.0925, 11.66064
971.5746, 3.389648
972.0568, 0.6562500
972.5389, 2.030762
973.0210, 1.523926
973.5031, 1.328125
973.9852, 5.241211
974.4673, 6.173828
974.9495, 4.1503999E-02
975.4316, 9.159668
975.9137, 16.24414
976.3958, 21.53857
976.8779, 16.73584
977.3600, 2.413574
977.8422, 18.43408
978.3243, 7.704590
978.8064, 14.58301
979.2885, 28.97705
979.7706, 30.34277
980.2527, 33.02246
980.7349, 41.50195
981.2170, 48.96973
981.6991, 51.76270
982.1812, 50.25635
982.6633, 47.80713
983.1454, 44.44336
983.6276, 41.24023
984.1097, 36.77686
984.5918, 34.42676
985.0739, 38.41797
985.5560, 46.54932
986.0381, 53.00635
986.5203, 55.79004
987.0024, 60.57666
987.4845, 69.63525
987.9666, 77.96484
988.4487, 76.65186
988.9308, 68.95947
989.4130, 63.68799
989.8951, 61.93652
990.3772, 61.59131
990.8593, 63.61816
991.3414, 64.77930
991.8235, 61.06348
992.3057, 51.92383
992.7878, 51.63867
993.2699, 60.67627
993.7520, 71.91016
994.2341, 83.89404
994.7162, 93.75098
995.1984, 93.67139
995.6805, 87.28223
996.1626, 84.90039
996.6447, 98.34668
997.1268, 106.2646
997.6089, 99.54150
998.0911, 87.27490
998.5732, 82.51367
999.0553, 85.35352
999.5374, 92.00195
1000.020, 102.5923
1000.502, 109.4927
1000.984, 100.1289
1001.466, 87.75586
1001.948, 87.56982
1002.430, 102.9663
1002.912, 110.4087
1003.394, 105.9458
1003.876, 98.03857
1004.359, 87.54785
1004.841, 77.00098
1005.323, 78.72852
1005.805, 89.48486
1006.287, 96.01807
1006.769, 90.30664
1007.251, 81.47363
1007.733, 70.14209
1008.216, 60.78955
1008.698, 60.91943
1009.180, 74.96582
1009.662, 80.45361
1010.144, 74.66895
1010.626, 67.72266
1011.108, 72.01855
1011.590, 80.87402
1012.072, 83.16699
1012.555, 78.53320
1013.037, 76.52393
1013.519, 84.83838
1014.001, 91.21045
1014.483, 91.35986
1014.965, 86.57764
1015.447, 81.16162
1015.929, 75.34033
1016.411, 70.92285
1016.894, 68.96143
1017.376, 67.18701
1017.858, 64.24805
1018.340, 59.01611
1018.822, 51.41260
1019.304, 38.93115
1019.786, 38.52441
1020.268, 54.00000
1020.751, 68.86768
1021.233, 69.72070
1021.715, 60.80859
1022.197, 50.21045
1022.679, 38.71338
1023.161, 30.23730
1023.643, 25.24561
1024.125, 25.62500
1024.607, 36.79053
1025.090, 51.71729
1025.572, 52.29053
1026.054, 37.10986
1026.536, 40.79395
1027.018, 73.86865
1027.500, 106.7856
1027.982, 104.3950
1028.464, 85.89502
1028.947, 73.92627
1029.429, 74.12109
1029.911, 68.56055
1030.393, 51.75488
1030.875, 37.88525
1031.357, 36.27344
1031.839, 42.12256
1032.321, 38.55518
1032.803, 28.59375
1033.286, 22.55469
1033.768, 30.46289
1034.250, 37.24219
1034.732, 35.43506
1035.214, 27.97559
1035.696, 18.62012
1036.178, 7.030762
1036.660, 7.902832
1037.143, 23.03711
1037.625, 37.43457
1038.107, 33.51904
1038.589, 23.06689
1039.071, 20.82715
1039.553, 27.31592
1040.035, 34.09766
1040.517, 41.14453
1041.000, 45.55371
1041.482, 46.71582
1041.964, 44.71631
1042.446, 38.52051
1042.928, 29.35938
1043.410, 22.54639
1043.892, 20.02979
1044.374, 19.01465
1044.856, 21.28369
1045.339, 22.19238
1045.821, 15.93945
1046.303, 0.3725590
1046.785, 5.173828
1047.267, 3.3202998E-02
1047.749, 9.130859
1048.231, 23.73779
1048.713, 35.44531
1049.195, 28.25342
1049.677, 8.798340
1050.160, 3.315430
1050.642, 2.403809
1051.124, 9.956543
1051.606, 19.72559
1052.088, 27.49707
1052.570, 26.96973
1053.052, 19.45898
1053.534, 8.934570
1054.017, 4.326172
1054.499, 13.54199
1054.981, 10.78857
1055.463, 6.197266
1055.945, 7.001465
1056.427, 11.81055
1056.909, 11.31348
1057.391, 4.940430
1057.874, 1.092773
1058.356, 5.289551
1058.838, 6.890625
1059.320, 3.733887
1059.802, 1.932617
1060.284, 7.658691
1060.766, 15.18652
1061.248, 16.62598
1061.730, 9.506348
1062.213, 0.8964840
1062.695, 5.129883
1063.177, 8.544922
1063.659, 7.963379
1064.141, 4.151367
1064.623, 1.032227
1065.105, 1.598633
1065.587, 0.7514650
1066.070, 7.753906
1066.552, 18.79492
1067.034, 25.27612
1067.516, 27.12695
1067.998, 23.99292
1068.480, 15.03198
1068.962, 9.560547
1069.444, 19.40405
1069.927, 34.31445
1070.409, 47.25586
1070.891, 57.06055
1071.373, 56.51465
1071.855, 39.46436
1072.337, 29.45996
1072.819, 35.89307
1073.301, 49.98999
1073.783, 56.97803
1074.266, 59.13867
1074.748, 61.09595
1075.230, 63.62134
1075.712, 67.40576
1076.194, 74.22974
1076.676, 80.49414
1077.158, 83.07886
1077.640, 82.71558
1078.122, 87.90771
1078.604, 97.81421
1079.087, 105.3552
1079.569, 104.9490
1080.051, 102.5698
1080.533, 98.09253
1081.015, 95.51196
1081.497, 103.3093
1081.979, 126.6016
1082.461, 133.9575
1082.944, 120.8142
1083.426, 107.0701
1083.908, 113.4248
1084.390, 128.9343
1084.872, 143.2693
1085.354, 155.2271
1085.836, 160.3706
1086.318, 152.7012
1086.801, 148.4802
1087.283, 150.8091
1087.765, 159.7979
1088.247, 178.6040
1088.729, 204.0205
1089.211, 228.5818
1089.693, 251.8467
1090.175, 268.3472
1090.657, 268.4297
1091.140, 268.2375
1091.622, 277.6685
1092.104, 294.9614
1092.586, 305.9348
1093.068, 310.9297
1093.550, 314.8223
1094.032, 325.8940
1094.514, 327.5435
1094.997, 297.4370
1095.479, 256.6099
1095.961, 231.5581
1096.443, 226.5486
1096.925, 219.4600
1097.407, 209.7703
1097.889, 204.0183
1098.371, 209.9551
1098.854, 220.9688
1099.336, 230.0295
1099.818, 236.9124
1100.300, 241.7874
1100.782, 246.1858
1101.264, 246.2559
1101.746, 237.7793
1102.228, 228.5991
1102.710, 232.2520
1103.193, 242.1489
1103.675, 240.1785
1104.157, 224.2544
1104.639, 209.9121
1105.121, 203.2224
1105.603, 202.2468
1106.085, 208.0293
1106.567, 216.7986
1107.049, 216.1211
1107.531, 207.6360
1108.014, 204.9929
1108.496, 213.9443
1108.978, 223.4897
1109.460, 228.0178
1109.942, 228.0413
1110.424, 222.6328
1110.906, 211.3481
1111.388, 203.8484
1111.871, 200.0938
1112.353, 197.3555
1112.835, 195.9597
1113.317, 195.7400
1113.799, 198.3347
1114.281, 199.8250
1114.763, 194.4055
1115.245, 174.4473
1115.728, 164.4873
1116.210, 166.9121
1116.692, 170.6321
1117.174, 164.1101
1117.656, 153.7556
1118.138, 153.6272
1118.620, 160.6843
1119.102, 162.2134
1119.584, 147.8901
1120.067, 137.0083
1120.549, 132.9597
1121.031, 132.4575
1121.513, 129.9026
1121.995, 126.2747
1122.477, 122.6960
1122.959, 119.1055
1123.441, 114.3071
1123.924, 107.5566
1124.406, 99.31885
1124.888, 87.91968
1125.370, 76.18481
1125.852, 73.44507
1126.334, 78.78101
1126.816, 82.15356
1127.298, 81.46973
1127.781, 78.52783
1128.263, 70.14404
1128.745, 63.66113
1129.227, 68.09155
1129.709, 82.50952
1130.191, 84.44043
1130.673, 73.07983
1131.155, 62.86084
1131.637, 59.86719
1132.120, 59.72070
1132.602, 58.81152
1133.084, 57.32690
1133.566, 55.63306
1134.048, 53.74976
1134.530, 51.16870
1135.012, 47.58643
1135.494, 44.29980
1135.976, 41.94214
1136.458, 40.54321
1136.941, 40.37695
1137.423, 41.18188
1137.905, 42.39600
1138.387, 46.33789
1138.869, 46.73828
1139.351, 43.12842
1139.833, 36.59155
1140.315, 24.47485
1140.798, 11.16943
1141.280, 9.287598
1141.762, 17.58716
1142.244, 25.06592
1142.726, 27.07349
1143.208, 27.72974
1143.690, 27.64453
1144.172, 27.08911
1144.655, 27.36816
1145.137, 27.71069
1145.619, 23.18848
1146.101, 13.14038
1146.583, 5.679688
1147.065, 6.806152
1147.547, 10.14648
1148.029, 13.29736
1148.511, 16.09692
1148.994, 18.00562
1149.476, 19.02832
1149.958, 19.23901
1150.440, 18.46582
1150.922, 17.78613
1151.404, 22.11792
1151.886, 23.05469
1152.368, 9.958008
1152.851, 14.34229
1153.333, 19.63867
1153.815, 5.855469
1154.297, 6.288818
1154.779, 8.190674
1155.261, 7.547363
1155.743, 11.50171
1156.225, 16.73950
1156.708, 20.01147
1157.190, 21.82397
1157.672, 14.90552
1158.154, 2.494141
1158.636, 12.87329
1159.118, 0.5053710
1159.600, 18.32642
1160.082, 15.67236
1160.564, 23.95508
1161.047, 27.44238
1161.529, 20.18213
1162.011, 24.88354
1162.493, 11.32568
1162.975, 3.099609
1163.457, 3.429932
1163.939, 2.349365
1164.421, 2.258545
1164.903, 1.268555
1165.385, 4.3950002E-03
1165.868, 14.78491
1166.350, 20.04785
1166.832, 11.42847
1167.314, 0.3327640
1167.796, 0.5793460
1168.278, 3.956543
1168.760, 6.920898
1169.242, 7.664795
1169.725, 5.294189
1170.207, 5.977051
1170.689, 11.86230
1171.171, 8.810059
1171.653, 2.111572
1172.135, 1.112061
1172.617, 2.156738
1173.099, 3.934814
1173.582, 6.761230
1174.064, 9.538574
1174.546, 11.84058
1175.028, 14.11230
1175.510, 16.73145
1175.992, 18.98413
1176.474, 20.66162
1176.956, 20.65967
1177.438, 13.06274
1177.921, 5.054199
1178.403, 14.17017
1178.885, 4.170410
1179.367, 21.14868
1179.849, 23.62817
1180.331, 17.80054
1180.813, 25.30688
1181.295, 41.55566
1181.778, 47.42749
1182.260, 33.43408
1182.742, 24.33398
1183.224, 40.00415
1183.706, 54.84277
1184.188, 53.09180
1184.670, 38.62500
1185.152, 32.09644
1185.635, 32.62695
1186.117, 36.00391
1186.599, 43.25928
1187.081, 47.58887
1187.563, 41.01245
1188.045, 34.23730
1188.527, 36.75049
1189.009, 47.36304
1189.491, 49.79590
1189.974, 44.98511
1190.456, 39.48218
1190.938, 33.48364
1191.420, 31.73267
1191.902, 43.21851
1192.384, 55.22290
1192.866, 53.67188
1193.348, 38.14966
1193.830, 29.53101
1194.313, 27.55566
1194.795, 28.53394
1195.277, 32.45386
1195.759, 36.26611
1196.241, 38.83618
1196.723, 39.94336
1197.205, 38.75146
1197.687, 35.15527
1198.169, 33.92773
1198.652, 35.19385
1199.134, 36.26709
1199.616, 34.37988
1200.098, 32.86450
1200.580, 33.86108
1201.062, 36.51367
1201.544, 40.19800
1202.026, 45.04321
1202.509, 44.49219
1202.991, 37.88110
1203.473, 34.74365
1203.955, 46.55176
1204.437, 59.50635
1204.919, 66.35010
1205.401, 67.26245
1205.883, 60.29468
1206.365, 45.03076
1206.848, 39.40210
1207.330, 46.20337
1207.812, 54.48071
1208.294, 57.92969
1208.776, 57.93750
1209.258, 52.04370
1209.740, 43.99341
1210.222, 45.58789
1210.705, 56.05713
1211.187, 61.64722
1211.669, 60.77661
1212.151, 58.27759
1212.633, 58.91406
1213.115, 58.10547
1213.597, 49.59644
1214.079, 37.02441
1214.562, 34.41821
1215.044, 41.45044
1215.526, 47.35059
1216.008, 49.54810
1216.490, 48.90674
1216.972, 43.77393
1217.454, 40.61157
1217.936, 46.45605
1218.418, 58.97900
1218.901, 66.51904
1219.383, 69.23462
1219.865, 71.15259
1220.347, 73.58447
1220.829, 73.98120
1221.311, 70.68921
1221.793, 65.29443
1222.275, 56.16748
1222.757, 44.96484
1223.240, 47.36108
1223.722, 62.21826
1224.204, 73.73315
1224.686, 76.70166
1225.168, 74.96533
1225.650, 68.20605
1226.132, 60.59253
1226.614, 54.37964
1227.096, 49.87622
1227.579, 50.37256
1228.061, 55.12646
1228.543, 61.77148
1229.025, 72.11572
1229.507, 79.71729
1229.989, 76.55933
1230.471, 71.18677
1230.953, 70.74561
1231.436, 74.76904
1231.918, 79.05054
1232.400, 83.34790
1232.882, 86.06543
1233.364, 86.47900
1233.846, 85.39014
1234.328, 79.83008
1234.810, 76.21680
1235.292, 81.28320
1235.775, 92.64844
1236.257, 91.89258
1236.739, 82.88135
1237.221, 77.29028
1237.703, 81.55591
1238.185, 88.45239
1238.667, 99.39404
1239.149, 107.8787
1239.632, 107.6711
1240.114, 100.4309
1240.596, 97.30151
1241.078, 97.17896
1241.560, 94.81714
1242.042, 79.94287
1242.524, 74.52539
1243.006, 89.02002
1243.489, 107.4055
1243.971, 118.1213
1244.453, 122.1699
1244.935, 122.4133
1245.417, 119.1365
1245.899, 114.2800
1246.381, 104.1533
1246.863, 99.27368
1247.345, 104.3840
1247.828, 109.0188
1248.310, 100.0227
1248.792, 85.16455
1249.274, 87.18384
1249.756, 101.8091
1250.238, 113.6775
1250.720, 120.1816
1251.202, 117.2500
1251.684, 100.2788
1252.167, 84.98315
1252.649, 88.59326
1253.131, 101.3828
1253.613, 104.5354
1254.095, 100.1423
1254.577, 96.68555
1255.059, 98.79443
1255.541, 97.40015
1256.023, 90.61279
1256.506, 84.48999
1256.988, 87.93994
1257.470, 92.71387
1257.952, 83.65747
1258.434, 66.20239
1258.916, 58.82104
1259.398, 68.15015
1259.880, 72.70605
1260.363, 70.65723
1260.845, 69.08667
1261.327, 80.19995
1261.809, 89.39575
1262.291, 75.87085
1262.773, 48.97949
1263.255, 35.36157
1263.737, 38.80762
1264.219, 40.53613
1264.702, 39.18726
1265.184, 37.72974
1265.666, 38.41089
1266.148, 39.94507
1266.630, 42.55347
1267.112, 44.87231
1267.594, 44.29028
1268.076, 40.70923
1268.559, 35.61426
1269.041, 29.15918
1269.523, 24.05518
1270.005, 25.55835
1270.487, 25.18774
1270.969, 12.74463
1271.451, 1.435791
1271.933, 1.648438
1272.416, 10.86963
1272.898, 20.77930
1273.380, 27.06787
1273.862, 30.82520
1274.344, 30.55176
1274.826, 30.56543
1275.308, 33.91748
1275.790, 36.61963
1276.272, 31.90210
1276.755, 22.29932
1277.237, 18.17651
1277.719, 19.26904
1278.201, 19.07935
1278.683, 11.47119
1279.165, 7.303711
1279.647, 9.403076
1280.129, 13.67285
1280.611, 16.86694
1281.094, 18.34668
1281.576, 15.59546
1282.058, 9.529053
1282.540, 5.124756
1283.022, 4.014404
1283.504, 3.673584
1283.986, 3.379150
1284.468, 5.455322
1284.950, 17.73804
1285.433, 29.95605
1285.915, 24.84448
1286.397, 7.084473
1286.879, 3.894043
1287.361, 5.602295
1287.843, 1.453857
1288.325, 8.559814
1288.807, 17.38354
1289.290, 16.85474
1289.772, 14.45117
1290.254, 17.89404
1290.736, 23.93433
1291.218, 23.96655
1291.700, 17.01978
1292.182, 18.43066
1292.664, 28.89844
1293.146, 37.87451
1293.629, 37.50977
1294.111, 34.30859
1294.593, 28.54199
1295.075, 21.17578
1295.557, 18.63477
1296.039, 17.47754
1296.521, 14.55298
1297.003, 10.22070
1297.486, 9.528809
1297.968, 21.11816
1298.450, 29.40088
1298.932, 32.02173
1299.414, 29.17700
1299.896, 17.31934
1300.378, 2.007324
1300.860, 9.9365003E-02
1301.343, 8.111328
1301.825, 0.0000000E+00
##END=



