##NAMES=Woodhouseite
##RRUFFID=R060520
##IDEAL CHEMISTRY=CaAl_3_(SO_4_)(PO_4_)(OH)_6_
##LOCALITY=Champion mine, Mono County, California, USA
##OWNER=RRUFF
##SOURCE=Michael Scott
##DESCRIPTION=Colorless cubes, with striations that display the rhombohedral symmetry
##STATUS=The identification of this mineral has been confirmed by X-ray diffraction and chemical analysis
##URL=rruff.info/R060520
##MEASURED CHEMISTRY=darker phase: (Ca_0.98_Sr_0.02_)_Σ=1_Al_3.00_[(P_0.53_S_0.47_)_Σ=1_O_4_]_2_((OH)_5.94_(H_2_O)_0.06_)_Σ=6_ ;  lighter phase: (Ca_0.94_Sr_0.06_)_Σ=1_Al_3.00_[(P_0.52_S_0.48_)O_4_]_2_((OH)_5.96_(H_2_O)_0.04_)_Σ=6
89.78320, 0.0000000E+00
90.26532, 0.1462400
90.74744, 1.000977
91.22955, 5.219971
91.71167, 15.56396
92.19379, 41.41028
92.67590, 80.19812
93.15802, 109.6708
93.64014, 108.3179
94.12225, 84.43750
94.60437, 68.66125
95.08649, 66.09058
95.56860, 67.32336
96.05072, 63.25537
96.53284, 60.61768
97.01495, 61.11023
97.49707, 52.57336
97.97919, 38.10901
98.46130, 25.45850
98.94342, 15.71777
99.42554, 8.833740
99.90765, 7.271729
100.3898, 12.59241
100.8719, 19.76917
101.3540, 21.38538
101.8361, 16.55615
102.3182, 10.28369
102.8004, 3.741821
103.2825, 3.970459
103.7646, 7.916260
104.2467, 7.365479
104.7288, 3.541016
105.2109, 0.4094240
105.6931, 2.537720
106.1752, 8.163208
106.6573, 19.81165
107.1394, 40.02197
107.6215, 61.21973
108.1036, 87.98303
108.5858, 117.5344
109.0679, 133.4456
109.5500, 126.5244
110.0321, 113.4635
110.5142, 103.2108
110.9963, 96.53699
111.4785, 91.79529
111.9606, 88.86597
112.4427, 87.70837
112.9248, 88.21411
113.4069, 89.88623
113.8890, 93.34680
114.3712, 99.16479
114.8533, 107.9808
115.3354, 118.5679
115.8175, 132.5652
116.2996, 150.9159
116.7817, 164.0591
117.2639, 164.6263
117.7460, 159.3040
118.2281, 156.5585
118.7102, 164.2744
119.1923, 172.1637
119.6744, 173.1210
120.1566, 165.1339
120.6387, 158.0928
121.1208, 155.3148
121.6029, 155.1991
122.0850, 159.1168
122.5671, 166.9475
123.0493, 177.4135
123.5314, 191.0199
124.0135, 212.4236
124.4956, 230.2717
124.9777, 232.7979
125.4598, 223.2693
125.9420, 211.4064
126.4241, 202.1729
126.9062, 195.0447
127.3883, 189.0432
127.8704, 183.8231
128.3525, 179.7896
128.8347, 177.8484
129.3168, 177.9426
129.7989, 178.9348
130.2810, 180.3752
130.7631, 182.0830
131.2452, 183.5569
131.7274, 184.9452
132.2095, 185.9095
132.6916, 185.5322
133.1737, 183.8020
133.6558, 180.9733
134.1379, 176.5355
134.6201, 170.5444
135.1022, 165.9100
135.5843, 163.3503
136.0664, 162.8461
136.5485, 164.6804
137.0306, 169.4425
137.5128, 175.2317
137.9949, 179.4534
138.4770, 181.4700
138.9591, 185.2870
139.4412, 193.6456
139.9233, 207.1344
140.4055, 215.4825
140.8876, 218.2150
141.3697, 216.1854
141.8518, 210.4156
142.3339, 199.8833
142.8160, 187.9222
143.2982, 175.5941
143.7803, 163.0319
144.2624, 149.9298
144.7445, 136.3601
145.2266, 122.2140
145.7087, 107.5148
146.1909, 90.15039
146.6730, 74.69153
147.1551, 63.07617
147.6372, 58.87781
148.1193, 53.01831
148.6014, 45.16504
149.0836, 35.65930
149.5657, 25.34644
150.0478, 12.89490
150.5299, 0.8948970
151.0120, 9.587158
151.4941, 19.54260
151.9763, 26.79309
152.4584, 30.08374
152.9405, 30.17737
153.4226, 30.95093
153.9047, 34.11755
154.3868, 37.16333
154.8690, 38.72656
155.3511, 38.93237
155.8332, 37.28113
156.3153, 32.59888
156.7974, 25.40002
157.2795, 19.49536
157.7617, 18.56946
158.2438, 17.37439
158.7259, 12.28979
159.2080, 2.297974
159.6901, 11.38123
160.1722, 28.78516
160.6544, 49.76025
161.1365, 72.85950
161.6186, 97.74829
162.1007, 124.8866
162.5828, 155.3425
163.0649, 189.1819
163.5471, 226.0604
164.0292, 267.4390
164.5113, 313.2410
164.9934, 357.5034
165.4755, 394.9202
165.9576, 429.8325
166.4398, 467.0574
166.9219, 507.0349
167.4040, 551.4766
167.8861, 601.3975
168.3682, 657.1516
168.8503, 716.5337
169.3325, 776.4742
169.8146, 839.5819
170.2967, 909.0262
170.7788, 985.2292
171.2609, 1069.989
171.7430, 1163.663
172.2252, 1266.648
172.7073, 1379.160
173.1894, 1500.089
173.6715, 1631.769
174.1536, 1774.485
174.6357, 1930.901
175.1179, 2099.955
175.6000, 2283.097
176.0821, 2479.975
176.5642, 2683.542
177.0463, 2894.373
177.5284, 3108.461
178.0106, 3309.943
178.4927, 3503.011
178.9748, 3676.322
179.4569, 3809.760
179.9390, 3904.924
180.4211, 3952.437
180.9033, 3942.538
181.3854, 3876.131
181.8675, 3759.539
182.3496, 3580.454
182.8317, 3355.127
183.3138, 3106.846
183.7960, 2834.643
184.2781, 2555.809
184.7602, 2293.534
185.2423, 2046.335
185.7244, 1822.776
186.2065, 1626.173
186.6887, 1455.794
187.1708, 1306.178
187.6529, 1178.329
188.1350, 1068.134
188.6171, 974.0194
189.0992, 895.0281
189.5814, 825.0720
190.0635, 760.9062
190.5456, 701.8853
191.0277, 650.0724
191.5098, 606.5952
191.9919, 568.3459
192.4741, 529.5042
192.9562, 490.0522
193.4383, 453.4404
193.9204, 423.0425
194.4025, 398.5895
194.8846, 375.5635
195.3668, 353.5378
195.8489, 332.5449
196.3310, 312.6870
196.8131, 293.9725
197.2952, 276.3759
197.7773, 259.6705
198.2595, 243.9227
198.7416, 229.3862
199.2237, 216.5001
199.7058, 204.6873
200.1879, 192.4307
200.6700, 179.4691
201.1522, 166.8462
201.6343, 155.1132
202.1164, 144.2629
202.5985, 134.5359
203.0806, 126.2101
203.5627, 118.9729
204.0449, 111.8997
204.5270, 104.8815
205.0091, 98.33264
205.4912, 92.27869
205.9733, 86.51196
206.4554, 82.44141
206.9376, 80.26404
207.4197, 79.88843
207.9018, 81.09985
208.3839, 84.16089
208.8660, 87.85181
209.3481, 91.31775
209.8303, 94.44873
210.3124, 98.68079
210.7945, 104.5002
211.2766, 111.6165
211.7587, 119.1578
212.2408, 127.2382
212.7230, 135.6838
213.2051, 144.5841
213.6872, 154.1639
214.1693, 163.8783
214.6514, 173.3170
215.1335, 182.7949
215.6157, 193.4894
216.0978, 205.5437
216.5799, 218.7742
217.0620, 233.3374
217.5441, 249.3931
218.0262, 265.2358
218.5084, 280.1917
218.9905, 294.9934
219.4726, 312.5374
219.9547, 334.1973
220.4368, 356.7869
220.9189, 377.8132
221.4011, 396.3667
221.8832, 416.3389
222.3653, 438.1731
222.8474, 461.7061
223.3295, 487.5359
223.8116, 515.9492
224.2938, 545.2983
224.7759, 574.3997
225.2580, 602.1924
225.7401, 631.7734
226.2222, 664.0469
226.7043, 698.2371
227.1865, 732.5793
227.6686, 765.4155
228.1507, 799.7800
228.6328, 837.1870
229.1149, 878.5986
229.5970, 920.3823
230.0792, 960.9443
230.5613, 1001.734
231.0434, 1047.053
231.5255, 1096.933
232.0076, 1150.477
232.4897, 1206.808
232.9719, 1266.330
233.4540, 1327.598
233.9361, 1390.943
234.4182, 1456.358
234.9003, 1524.823
235.3824, 1597.382
235.8646, 1671.545
236.3467, 1745.661
236.8288, 1817.396
237.3109, 1894.251
237.7930, 1976.543
238.2751, 2064.276
238.7573, 2155.048
239.2394, 2248.958
239.7215, 2345.833
240.2036, 2446.596
240.6857, 2552.533
241.1678, 2659.162
241.6500, 2765.721
242.1321, 2872.690
242.6142, 2984.093
243.0963, 3103.705
243.5784, 3221.108
244.0605, 3331.656
244.5427, 3437.461
245.0248, 3533.389
245.5069, 3620.829
245.9890, 3697.732
246.4711, 3758.880
246.9532, 3804.698
247.4354, 3835.600
247.9175, 3850.958
248.3996, 3849.535
248.8817, 3837.439
249.3638, 3815.793
249.8459, 3782.947
250.3281, 3735.262
250.8102, 3669.290
251.2923, 3594.749
251.7744, 3513.335
252.2565, 3425.072
252.7386, 3333.019
253.2208, 3236.528
253.7029, 3137.018
254.1850, 3034.301
254.6671, 2926.129
255.1492, 2818.053
255.6313, 2712.085
256.1135, 2608.532
256.5956, 2507.473
257.0777, 2409.974
257.5598, 2314.935
258.0419, 2221.064
258.5240, 2128.837
259.0062, 2038.738
259.4883, 1949.554
259.9704, 1862.555
260.4525, 1780.744
260.9346, 1706.012
261.4167, 1635.818
261.8989, 1566.848
262.3810, 1498.212
262.8631, 1434.529
263.3452, 1378.057
263.8273, 1328.107
264.3094, 1282.616
264.7916, 1241.602
265.2737, 1203.381
265.7558, 1164.911
266.2379, 1124.733
266.7200, 1090.606
267.2021, 1065.442
267.6843, 1048.294
268.1664, 1028.654
268.6485, 1005.231
269.1306, 981.4790
269.6127, 960.8286
270.0948, 943.9868
270.5770, 927.6737
271.0591, 911.6445
271.5412, 895.7323
272.0233, 878.9438
272.5054, 861.3369
272.9875, 843.2620
273.4697, 825.3247
273.9518, 807.5886
274.4339, 788.3086
274.9160, 766.6113
275.3981, 743.7219
275.8802, 722.7471
276.3624, 704.0928
276.8445, 687.0756
277.3266, 672.1873
277.8087, 659.7205
278.2908, 645.0151
278.7729, 627.1898
279.2551, 607.5756
279.7372, 590.1338
280.2193, 575.3333
280.7014, 559.2920
281.1835, 539.7351
281.6656, 516.6952
282.1478, 491.8362
282.6299, 464.8914
283.1120, 436.8215
283.5941, 408.7024
284.0762, 380.3552
284.5583, 353.4626
285.0405, 329.2087
285.5226, 307.2585
286.0047, 283.9948
286.4868, 258.8308
286.9689, 234.2343
287.4510, 213.8801
287.9332, 197.6130
288.4153, 182.2438
288.8974, 166.9574
289.3795, 151.7324
289.8616, 136.7255
290.3438, 121.8186
290.8259, 107.9272
291.3080, 96.02173
291.7901, 86.09033
292.2722, 77.48267
292.7543, 70.38794
293.2365, 64.38818
293.7186, 58.99841
294.2007, 54.27600
294.6828, 49.01270
295.1649, 41.15527
295.6470, 31.73853
296.1292, 23.99829
296.6113, 19.17407
297.0934, 16.11084
297.5755, 13.25146
298.0576, 10.57397
298.5397, 7.883545
299.0219, 4.659912
299.5040, 1.334229
299.9861, 0.9660640
300.4682, 1.599609
300.9503, 1.963135
301.4324, 4.399902
301.9146, 8.278809
302.3967, 11.04028
302.8788, 9.948975
303.3609, 7.082275
303.8430, 5.615479
304.3251, 6.255371
304.8073, 7.269531
305.2894, 7.247803
305.7715, 6.389160
306.2536, 5.123779
306.7357, 2.825195
307.2178, 0.7353520
307.7000, 0.5063480
308.1821, 2.464600
308.6642, 4.641846
309.1463, 5.370117
309.6284, 5.438721
310.1105, 6.055664
310.5927, 8.848145
311.0748, 11.59912
311.5569, 12.28149
312.0390, 10.87598
312.5211, 9.929199
313.0032, 11.12500
313.4854, 13.37817
313.9675, 15.54761
314.4496, 17.02441
314.9317, 18.48120
315.4138, 20.45190
315.8959, 22.77051
316.3781, 24.51807
316.8602, 24.18774
317.3423, 23.74146
317.8244, 24.75269
318.3065, 29.27466
318.7886, 32.84717
319.2708, 33.22388
319.7529, 31.42700
320.2350, 30.31079
320.7171, 32.41577
321.1992, 34.20239
321.6813, 33.77393
322.1635, 29.93091
322.6456, 26.13965
323.1277, 22.62769
323.6098, 19.67212
324.0919, 17.70361
324.5740, 18.81909
325.0562, 19.15845
325.5383, 16.94092
326.0204, 10.96533
326.5025, 7.043213
326.9846, 6.891602
327.4667, 8.396729
327.9489, 9.289063
328.4310, 9.940186
328.9131, 9.444092
329.3952, 7.237305
329.8773, 3.249268
330.3594, 0.3452150
330.8416, 3.019043
331.3237, 5.700195
331.8058, 9.092529
332.2879, 14.07153
332.7700, 18.19727
333.2521, 20.53003
333.7343, 21.76660
334.2164, 25.50562
334.6985, 32.73315
335.1806, 40.75732
335.6627, 48.15063
336.1448, 54.43359
336.6270, 61.22217
337.1091, 68.52734
337.5912, 76.26294
338.0733, 84.46973
338.5554, 93.09009
339.0375, 102.0894
339.5197, 112.0347
340.0018, 123.0046
340.4839, 131.3550
340.9660, 136.2417
341.4481, 139.8972
341.9302, 144.8816
342.4124, 151.3232
342.8945, 158.1582
343.3766, 165.5010
343.8587, 172.9731
344.3408, 179.1755
344.8229, 183.9451
345.3051, 188.2068
345.7872, 192.4731
346.2693, 196.8008
346.7514, 201.8342
347.2335, 207.5352
347.7156, 214.1526
348.1978, 222.3035
348.6799, 231.9180
349.1620, 241.8711
349.6441, 251.6760
350.1262, 261.2859
350.6083, 270.3000
351.0905, 278.5906
351.5726, 287.1011
352.0547, 296.7603
352.5368, 307.5413
353.0189, 319.3638
353.5010, 332.8540
353.9832, 346.9824
354.4653, 360.2092
354.9474, 372.5559
355.4295, 385.3811
355.9116, 399.4451
356.3937, 414.8276
356.8759, 431.3716
357.3580, 450.6272
357.8401, 469.8811
358.3222, 486.5559
358.8043, 501.3718
359.2864, 517.2522
359.7686, 535.6699
360.2507, 556.0178
360.7328, 578.0222
361.2149, 603.7583
361.6970, 627.9756
362.1791, 648.5664
362.6613, 665.9314
363.1434, 681.1523
363.6255, 695.1030
364.1076, 706.5947
364.5897, 715.7065
365.0718, 722.9578
365.5540, 724.7817
366.0361, 719.6016
366.5182, 708.7908
367.0003, 694.1196
367.4824, 673.4385
367.9645, 651.4341
368.4467, 629.4248
368.9288, 607.8923
369.4109, 582.8640
369.8930, 552.0503
370.3751, 519.8086
370.8572, 488.8076
371.3394, 459.9585
371.8215, 431.1663
372.3036, 401.9185
372.7857, 372.6746
373.2678, 344.6765
373.7499, 317.4854
374.2321, 291.8313
374.7142, 268.4910
375.1963, 247.6497
375.6784, 227.5125
376.1605, 207.5911
376.6426, 188.6240
377.1248, 172.7561
377.6069, 160.4536
378.0890, 148.5564
378.5711, 135.8057
379.0532, 122.3774
379.5353, 110.1677
380.0175, 99.47925
380.4996, 89.51196
380.9817, 78.71606
381.4638, 67.46558
381.9459, 59.10889
382.4280, 54.85425
382.9102, 52.81665
383.3923, 49.30664
383.8744, 44.72437
384.3565, 40.99829
384.8386, 39.17212
385.3207, 38.81250
385.8029, 38.90967
386.2850, 39.13379
386.7671, 41.31812
387.2492, 47.93164
387.7313, 58.06934
388.2134, 69.39258
388.6956, 78.61841
389.1777, 89.72949
389.6598, 107.4153
390.1419, 131.4104
390.6240, 156.8726
391.1061, 180.2290
391.5883, 204.1108
392.0704, 231.5669
392.5525, 265.7817
393.0346, 300.4578
393.5167, 331.7468
393.9988, 361.5188
394.4810, 395.3418
394.9631, 436.2595
395.4452, 480.8650
395.9273, 527.5095
396.4094, 575.8323
396.8915, 626.7461
397.3737, 679.3447
397.8558, 734.9482
398.3379, 795.1748
398.8200, 860.8535
399.3021, 930.3809
399.7842, 1003.585
400.2664, 1080.375
400.7485, 1160.879
401.2306, 1244.948
401.7127, 1331.735
402.1948, 1421.057
402.6769, 1515.721
403.1591, 1606.775
403.6412, 1694.260
404.1233, 1777.325
404.6054, 1857.914
405.0875, 1938.287
405.5696, 2007.330
406.0518, 2061.108
406.5339, 2099.668
407.0160, 2123.267
407.4981, 2132.418
407.9802, 2124.913
408.4623, 2098.245
408.9445, 2052.268
409.4266, 1987.135
409.9087, 1900.949
410.3908, 1797.750
410.8729, 1684.209
411.3550, 1560.115
411.8372, 1434.546
412.3193, 1309.144
412.8014, 1186.254
413.2835, 1069.898
413.7656, 959.4048
414.2477, 856.7781
414.7299, 765.1606
415.2120, 683.4236
415.6941, 611.4446
416.1762, 550.1602
416.6583, 496.8315
417.1404, 449.2087
417.6226, 406.7898
418.1047, 370.1331
418.5868, 340.3782
419.0689, 315.7288
419.5510, 294.1101
420.0331, 276.0305
420.5153, 259.7629
420.9974, 245.0510
421.4795, 231.8428
421.9616, 220.5710
422.4437, 212.0867
422.9258, 204.8745
423.4080, 198.3655
423.8901, 192.4436
424.3722, 187.5159
424.8543, 182.4944
425.3364, 179.1287
425.8185, 179.2974
426.3007, 186.1169
426.7828, 191.9839
427.2649, 195.3735
427.7470, 196.7529
428.2291, 199.3489
428.7112, 203.4836
429.1934, 208.1846
429.6755, 213.0916
430.1576, 218.2124
430.6397, 222.9775
431.1218, 226.9316
431.6039, 231.1438
432.0861, 238.2170
432.5682, 248.4370
433.0503, 256.8240
433.5324, 260.4182
434.0145, 261.1794
434.4966, 266.9246
434.9788, 277.8564
435.4609, 288.4956
435.9430, 293.0212
436.4251, 293.6885
436.9072, 296.9385
437.3893, 304.5271
437.8715, 313.5654
438.3536, 320.9851
438.8357, 327.1921
439.3178, 333.3240
439.7999, 340.5674
440.2820, 347.5930
440.7642, 352.7839
441.2463, 356.0518
441.7284, 359.2478
442.2105, 363.9316
442.6926, 368.7456
443.1747, 372.3767
443.6569, 373.8013
444.1390, 374.8625
444.6211, 375.7861
445.1032, 376.9290
445.5853, 379.2844
446.0674, 384.6106
446.5496, 389.5593
447.0317, 392.6035
447.5138, 392.8918
447.9959, 393.9089
448.4780, 395.9363
448.9601, 398.5112
449.4423, 401.0825
449.9244, 403.2114
450.4065, 406.0667
450.8886, 410.2546
451.3707, 415.2278
451.8528, 418.5471
452.3350, 419.8420
452.8171, 420.1013
453.2992, 419.1511
453.7813, 416.9539
454.2634, 416.7043
454.7455, 418.6533
455.2277, 421.5225
455.7098, 423.9846
456.1919, 425.6616
456.6740, 425.5454
457.1561, 422.8872
457.6382, 419.2363
458.1204, 416.6592
458.6025, 415.2151
459.0846, 415.4539
459.5667, 417.9316
460.0488, 422.2759
460.5309, 428.3667
461.0131, 436.5286
461.4952, 444.8452
461.9773, 450.1316
462.4594, 455.0469
462.9415, 463.5715
463.4236, 478.0940
463.9058, 495.5764
464.3879, 516.3840
464.8700, 539.7664
465.3521, 561.5947
465.8342, 578.1348
466.3163, 595.0083
466.7985, 615.3799
467.2806, 640.6560
467.7627, 667.2385
468.2448, 694.7314
468.7269, 723.3716
469.2090, 753.9529
469.6912, 787.8376
470.1733, 821.7041
470.6554, 854.5752
471.1375, 886.6621
471.6196, 920.1592
472.1017, 955.4729
472.5839, 991.1196
473.0660, 1026.745
473.5481, 1062.201
474.0302, 1098.366
474.5123, 1135.400
474.9944, 1173.005
475.4766, 1211.434
475.9587, 1250.415
476.4408, 1288.089
476.9229, 1322.637
477.4050, 1355.787
477.8871, 1391.017
478.3693, 1427.954
478.8514, 1462.849
479.3335, 1492.684
479.8156, 1519.285
480.2977, 1544.832
480.7798, 1570.183
481.2620, 1592.568
481.7441, 1611.735
482.2262, 1626.477
482.7083, 1635.022
483.1904, 1636.733
483.6725, 1632.023
484.1547, 1622.048
484.6368, 1606.520
485.1189, 1581.209
485.6010, 1544.479
486.0831, 1498.141
486.5652, 1443.632
487.0474, 1379.435
487.5295, 1309.078
488.0116, 1230.868
488.4937, 1148.587
488.9758, 1066.337
489.4579, 983.4814
489.9401, 901.7764
490.4222, 819.8025
490.9043, 739.3044
491.3864, 665.1013
491.8685, 597.1238
492.3506, 534.7002
492.8328, 477.7683
493.3149, 426.0281
493.7970, 377.0845
494.2791, 330.3821
494.7612, 288.2952
495.2433, 253.1816
495.7255, 224.0020
496.2076, 198.1362
496.6897, 176.3621
497.1718, 156.0420
497.6539, 134.5361
498.1360, 112.4624
498.6182, 91.76782
499.1003, 74.56641
499.5824, 58.60889
500.0645, 42.18555
500.5466, 23.96704
501.0287, 8.954590
501.5109, 1.116455
501.9930, 3.981201
502.4751, 10.64551
502.9572, 21.92578
503.4393, 31.84912
503.9214, 39.59082
504.4036, 45.44019
504.8857, 50.61108
505.3678, 55.15674
505.8499, 59.06006
506.3320, 62.48242
506.8141, 65.48950
507.2963, 66.75464
507.7784, 66.03320
508.2605, 64.23511
508.7426, 62.32544
509.2247, 60.26050
509.7068, 57.27783
510.1890, 53.01685
510.6711, 48.22095
511.1532, 44.37793
511.6353, 41.24854
512.1174, 37.73853
512.5995, 34.51514
513.0817, 29.93164
513.5638, 21.12427
514.0459, 8.237061
514.5280, 4.757324
515.0101, 15.20264
515.4922, 24.71655
515.9744, 34.39917
516.4565, 43.37720
516.9386, 54.94775
517.4207, 71.46265
517.9028, 91.03418
518.3849, 110.5586
518.8671, 126.8782
519.3492, 146.0542
519.8313, 170.4602
520.3134, 199.5112
520.7955, 227.7559
521.2776, 254.4431
521.7598, 281.5005
522.2419, 309.4729
522.7240, 338.2686
523.2061, 368.6829
523.6882, 400.2732
524.1703, 434.7366
524.6525, 473.8264
525.1346, 517.7190
525.6167, 567.3452
526.0988, 622.9861
526.5809, 683.7310
527.0630, 747.7344
527.5452, 814.9885
528.0273, 886.3721
528.5094, 962.7148
528.9915, 1043.808
529.4736, 1132.092
529.9557, 1228.317
530.4379, 1324.315
530.9200, 1421.284
531.4021, 1513.836
531.8842, 1597.564
532.3663, 1676.700
532.8484, 1739.065
533.3306, 1786.279
533.8127, 1814.006
534.2948, 1811.601
534.7769, 1776.563
535.2590, 1713.096
535.7411, 1617.745
536.2233, 1491.744
536.7054, 1355.225
537.1875, 1203.963
537.6696, 1052.740
538.1517, 906.7292
538.6339, 766.4016
539.1160, 641.0791
539.5981, 531.5251
540.0802, 438.3105
540.5623, 361.2402
541.0444, 299.6643
541.5266, 248.1169
542.0087, 206.4888
542.4908, 172.1289
542.9729, 142.9949
543.4550, 118.9045
543.9371, 98.16772
544.4193, 79.29980
544.9014, 63.53003
545.3835, 52.86035
545.8656, 47.68140
546.3477, 42.43262
546.8298, 33.56079
547.3120, 24.25708
547.7941, 17.23047
548.2762, 14.70923
548.7583, 11.89966
549.2404, 7.776611
549.7225, 3.326904
550.2047, 0.3168950
550.6868, 0.4912110
551.1689, 1.394043
551.6510, 3.307129
552.1331, 5.844727
552.6152, 6.149902
553.0974, 3.822998
553.5795, 1.091309
554.0616, 0.4860840
554.5437, 1.195068
555.0258, 2.597168
555.5079, 4.885254
555.9901, 7.437744
556.4722, 8.875977
556.9543, 10.21118
557.4364, 13.71753
557.9185, 21.13672
558.4006, 29.15479
558.8828, 35.12354
559.3649, 39.52881
559.8470, 43.85596
560.3291, 47.85059
560.8112, 52.04858
561.2933, 57.28003
561.7755, 63.62866
562.2576, 69.21387
562.7397, 72.83862
563.2218, 76.33862
563.7039, 80.84058
564.1860, 87.39673
564.6682, 92.24951
565.1503, 94.72290
565.6324, 96.91870
566.1145, 101.5007
566.5966, 108.8315
567.0787, 116.4731
567.5609, 123.8770
568.0430, 131.6602
568.5251, 140.4585
569.0072, 150.3752
569.4893, 161.4956
569.9714, 174.5581
570.4536, 188.7715
570.9357, 203.0549
571.4178, 217.6260
571.8999, 233.7654
572.3820, 251.7266
572.8641, 271.1204
573.3463, 291.1411
573.8284, 311.5312
574.3105, 333.5610
574.7926, 358.1169
575.2747, 384.3142
575.7568, 410.9497
576.2390, 438.3503
576.7211, 465.9507
577.2032, 492.9023
577.6853, 520.1838
578.1674, 550.5208
578.6495, 584.7195
579.1317, 619.6738
579.6138, 654.3374
580.0959, 688.7129
580.5780, 722.0032
581.0601, 754.2896
581.5422, 788.0190
582.0244, 825.6831
582.5065, 866.6196
582.9886, 908.5498
583.4707, 951.9517
583.9528, 995.6409
584.4349, 1038.727
584.9171, 1081.519
585.3992, 1124.511
585.8813, 1170.393
586.3634, 1213.909
586.8455, 1251.840
587.3276, 1285.599
587.8098, 1317.558
588.2919, 1348.936
588.7740, 1377.680
589.2561, 1403.737
589.7382, 1427.120
590.2203, 1445.521
590.7025, 1458.159
591.1846, 1466.864
591.6667, 1473.238
592.1488, 1477.528
592.6309, 1475.568
593.1130, 1466.770
593.5952, 1453.620
594.0773, 1437.858
594.5594, 1420.022
595.0415, 1402.528
595.5236, 1386.099
596.0057, 1369.807
596.4879, 1352.310
596.9700, 1334.264
597.4521, 1317.361
597.9342, 1302.738
598.4163, 1289.098
598.8984, 1275.794
599.3806, 1262.769
599.8627, 1250.323
600.3448, 1236.945
600.8269, 1225.524
601.3090, 1217.500
601.7911, 1213.668
602.2733, 1209.781
602.7554, 1205.053
603.2375, 1201.347
603.7196, 1200.756
604.2017, 1203.561
604.6838, 1206.246
605.1660, 1207.652
605.6481, 1210.363
606.1302, 1220.383
606.6123, 1236.103
607.0944, 1249.802
607.5765, 1256.638
608.0587, 1262.088
608.5408, 1273.292
609.0229, 1288.871
609.5050, 1304.332
609.9871, 1315.363
610.4692, 1327.049
610.9514, 1342.906
611.4335, 1363.491
611.9156, 1384.179
612.3977, 1403.356
612.8798, 1422.856
613.3619, 1443.779
613.8441, 1468.451
614.3262, 1489.288
614.8083, 1505.246
615.2904, 1519.087
615.7725, 1533.996
616.2546, 1550.018
616.7368, 1565.194
617.2189, 1579.179
617.7010, 1592.579
618.1831, 1606.772
618.6652, 1621.371
619.1473, 1634.866
619.6295, 1646.437
620.1116, 1656.504
620.5937, 1664.685
621.0758, 1671.425
621.5579, 1679.052
622.0400, 1689.231
622.5222, 1699.802
623.0043, 1709.075
623.4864, 1716.284
623.9685, 1726.824
624.4506, 1742.225
624.9327, 1759.869
625.4149, 1778.149
625.8970, 1796.489
626.3791, 1816.402
626.8612, 1838.207
627.3433, 1861.392
627.8254, 1885.460
628.3076, 1910.396
628.7897, 1935.467
629.2718, 1960.485
629.7539, 1985.584
630.2360, 2011.700
630.7181, 2038.180
631.2003, 2062.228
631.6824, 2082.317
632.1645, 2099.259
632.6466, 2115.688
633.1287, 2130.865
633.6108, 2137.917
634.0930, 2132.534
634.5751, 2119.936
635.0572, 2102.744
635.5393, 2081.344
636.0214, 2053.974
636.5035, 2020.167
636.9857, 1980.600
637.4678, 1935.600
637.9499, 1885.031
638.4320, 1831.165
638.9141, 1773.702
639.3962, 1714.606
639.8784, 1656.188
640.3605, 1599.191
640.8426, 1543.174
641.3247, 1488.018
641.8068, 1434.826
642.2889, 1383.901
642.7711, 1335.863
643.2532, 1290.433
643.7353, 1249.125
644.2174, 1209.324
644.6995, 1169.470
645.1816, 1130.119
645.6638, 1093.476
646.1459, 1060.572
646.6280, 1029.827
647.1101, 1000.146
647.5922, 971.6372
648.0743, 946.6707
648.5565, 925.9324
649.0386, 907.3145
649.5207, 890.5762
650.0028, 875.3313
650.4849, 857.8264
650.9670, 837.6272
651.4492, 817.2129
651.9313, 800.9102
652.4134, 786.1423
652.8955, 768.3718
653.3776, 745.7039
653.8597, 720.8210
654.3419, 695.6462
654.8240, 669.2219
655.3061, 640.4849
655.7882, 607.9656
656.2703, 574.5295
656.7524, 539.8933
657.2346, 504.8564
657.7167, 471.6521
658.1988, 440.5386
658.6809, 410.7173
659.1630, 381.7510
659.6451, 353.8230
660.1273, 328.2368
660.6094, 304.6921
661.0915, 282.8081
661.5736, 261.6206
662.0557, 241.7273
662.5378, 224.4226
663.0200, 209.7429
663.5021, 196.9087
663.9842, 186.4226
664.4663, 176.8625
664.9484, 166.9553
665.4305, 156.0925
665.9127, 145.8459
666.3948, 136.5120
666.8769, 128.0962
667.3590, 120.5483
667.8411, 114.3469
668.3232, 108.3591
668.8054, 102.9697
669.2875, 97.36084
669.7696, 90.05371
670.2517, 81.02051
670.7338, 71.03223
671.2159, 59.69019
671.6981, 48.46826
672.1802, 39.91797
672.6623, 33.81812
673.1444, 29.08203
673.6265, 26.47998
674.1086, 24.04224
674.5908, 20.15820
675.0729, 15.06055
675.5550, 10.16455
676.0371, 5.553467
676.5192, 1.638916
677.0013, 1.365967
677.4835, 3.402588
677.9656, 5.271729
678.4477, 7.146729
678.9298, 8.563477
679.4119, 8.705811
679.8940, 7.577393
680.3762, 8.600098
680.8583, 12.24097
681.3404, 16.03418
681.8225, 17.67920
682.3046, 17.59839
682.7867, 16.44336
683.2689, 13.99438
683.7510, 11.74023
684.2331, 10.77930
684.7152, 10.65381
685.1973, 10.80176
685.6794, 11.37402
686.1616, 11.81396
686.6437, 11.81812
687.1258, 11.66284
687.6079, 12.04688
688.0900, 13.71069
688.5721, 13.81689
689.0543, 10.99512
689.5364, 6.646729
690.0185, 5.202148
690.5006, 6.593750
690.9827, 7.953125
691.4648, 7.514648
691.9470, 6.359131
692.4291, 6.239014
692.9112, 6.991943
693.3933, 7.692139
693.8754, 7.605469
694.3575, 7.455322
694.8397, 8.173340
695.3218, 9.988037
695.8039, 9.842285
696.2860, 4.870361
696.7681, 0.1386720
697.2502, 1.648193
697.7324, 0.2648930
698.2145, 1.218018
698.6966, 0.9248050
699.1787, 0.4365230
699.6608, 1.501465
700.1429, 3.479004
700.6251, 2.804199
701.1072, 1.427002
701.5893, 6.282227
702.0714, 9.244873
702.5535, 10.75146
703.0356, 11.33960
703.5178, 10.33252
703.9999, 9.727783
704.4820, 10.70068
704.9641, 12.46240
705.4462, 13.78442
705.9283, 13.87183
706.4105, 14.76367
706.8926, 17.33203
707.3747, 20.50732
707.8568, 21.52417
708.3389, 20.26782
708.8210, 19.05664
709.3032, 18.47974
709.7853, 18.43433
710.2674, 19.05029
710.7495, 20.28687
711.2316, 21.68579
711.7137, 23.14307
712.1959, 24.45166
712.6780, 25.28955
713.1601, 25.69849
713.6422, 26.31641
714.1243, 27.42383
714.6064, 28.78613
715.0886, 30.39233
715.5707, 32.26978
716.0528, 33.96362
716.5349, 35.69336
717.0170, 36.74316
717.4991, 36.18701
717.9813, 34.33911
718.4634, 33.80469
718.9455, 34.71924
719.4276, 35.98633
719.9097, 36.96118
720.3918, 37.44897
720.8740, 36.72095
721.3561, 34.24463
721.8382, 33.28711
722.3203, 37.20728
722.8024, 42.22778
723.2845, 44.96191
723.7667, 42.91064
724.2488, 42.39233
724.7309, 43.83032
725.2130, 46.32910
725.6951, 49.43628
726.1772, 53.32886
726.6594, 54.70020
727.1415, 52.47949
727.6236, 49.18921
728.1057, 48.55615
728.5878, 49.63867
729.0699, 49.86279
729.5521, 47.52051
730.0342, 45.49292
730.5163, 46.46387
730.9984, 48.97583
731.4805, 50.42505
731.9626, 49.69580
732.4448, 48.37378
732.9269, 46.20557
733.4090, 43.78174
733.8911, 42.91455
734.3732, 43.98462
734.8553, 45.04614
735.3375, 45.46411
735.8196, 45.43237
736.3017, 45.53857
736.7838, 45.74731
737.2659, 45.83350
737.7480, 45.55103
738.2302, 45.12988
738.7123, 45.12256
739.1944, 45.23755
739.6765, 44.26294
740.1586, 40.05688
740.6407, 36.47583
741.1229, 35.59033
741.6050, 37.25830
742.0871, 38.79419
742.5692, 40.44238
743.0513, 41.24780
743.5334, 40.47754
744.0156, 38.32153
744.4977, 36.26636
744.9798, 34.32178
745.4619, 32.28271
745.9440, 29.47070
746.4261, 26.75293
746.9083, 25.60425
747.3904, 26.25098
747.8725, 26.48145
748.3546, 23.77856
748.8367, 21.12036
749.3188, 20.88599
749.8010, 24.08765
750.2831, 26.54443
750.7652, 28.64380
751.2473, 29.19531
751.7294, 26.48608
752.2115, 20.59570
752.6937, 16.88501
753.1758, 15.82422
753.6579, 15.54541
754.1400, 14.70312
754.6221, 13.46118
755.1042, 11.67285
755.5864, 8.847900
756.0685, 6.645020
756.5506, 7.405029
757.0327, 8.645264
757.5148, 7.692627
757.9969, 1.668945
758.4791, 2.541504
758.9612, 4.391602
759.4433, 4.634521
759.9254, 4.285156
760.4075, 3.458252
760.8896, 1.377686
761.3718, 2.499512
761.8539, 6.165527
762.3360, 6.640137
762.8181, 4.980225
763.3002, 3.430664
763.7823, 2.756836
764.2645, 2.156006
764.7466, 1.369385
765.2287, 0.3432620
765.7108, 1.037842
766.1929, 4.144043
766.6750, 5.479492
767.1572, 3.753662
767.6393, 0.8239750
768.1214, 0.4863280
768.6035, 2.963135
769.0856, 4.816650
769.5677, 5.269775
770.0499, 4.572266
770.5320, 2.258301
771.0141, 0.8977050
771.4962, 2.929443
771.9783, 1.961670
772.4604, 0.7082520
772.9426, 0.6530760
773.4247, 1.331299
773.9068, 1.674072
774.3889, 1.504883
774.8710, 1.071533
775.3531, 0.5021970
775.8353, 0.3242190
776.3174, 2.207764
776.7995, 5.222656
777.2816, 6.951660
777.7637, 6.228027
778.2458, 3.968750
778.7280, 0.6740720
779.2101, 3.025635
779.6922, 5.010498
780.1743, 2.513184
780.6564, 0.1948240
781.1385, 1.100342
781.6207, 0.3952640
782.1028, 0.9731450
782.5849, 3.558838
783.0670, 5.698975
783.5491, 6.862305
784.0313, 7.233887
784.5134, 7.879150
784.9955, 8.799561
785.4776, 8.604736
785.9597, 5.189941
786.4418, 1.283691
786.9240, 2.517578
787.4061, 7.375000
787.8882, 10.27661
788.3703, 5.095459
788.8524, 0.4021000
789.3345, 2.018311
789.8167, 8.853027
790.2988, 10.90454
790.7809, 4.760498
791.2630, 3.5399999E-02
791.7451, 0.7204590
792.2272, 5.285889
792.7094, 6.593018
793.1915, 4.770996
793.6736, 3.266602
794.1557, 4.965576
794.6378, 7.517578
795.1199, 7.545410
795.6021, 5.575684
796.0842, 4.147217
796.5663, 4.314209
797.0484, 5.299316
797.5305, 7.826416
798.0126, 11.38818
798.4948, 11.26978
798.9769, 5.445801
799.4590, 0.9755860
799.9411, 1.322510
800.4232, 5.235596
800.9053, 8.000000
801.3875, 9.717285
801.8696, 11.32104
802.3517, 13.65771
802.8338, 15.98340
803.3159, 17.05249
803.7980, 17.20630
804.2802, 18.47925
804.7623, 23.37988
805.2444, 27.51636
805.7265, 29.20312
806.2086, 28.63135
806.6907, 27.42407
807.1729, 25.26562
807.6550, 23.62280
808.1371, 22.91992
808.6192, 23.30762
809.1013, 26.40454
809.5834, 31.53027
810.0656, 34.77954
810.5477, 32.43921
811.0298, 28.66357
811.5119, 25.53271
811.9940, 23.32324
812.4761, 23.08374
812.9583, 27.08862
813.4404, 30.46509
813.9225, 31.71167
814.4046, 31.12476
814.8867, 30.09766
815.3688, 28.57788
815.8510, 27.88696
816.3331, 28.77588
816.8152, 30.73291
817.2973, 33.34399
817.7794, 36.36450
818.2615, 38.79858
818.7437, 39.43091
819.2258, 40.00244
819.7079, 41.44580
820.1900, 43.58032
820.6721, 45.12598
821.1542, 46.38135
821.6364, 46.25024
822.1185, 43.71509
822.6006, 39.87500
823.0827, 38.44775
823.5648, 39.19312
824.0469, 40.05737
824.5291, 39.58911
825.0112, 39.32935
825.4933, 41.97510
825.9754, 46.14404
826.4575, 47.58765
826.9396, 41.48950
827.4218, 36.62646
827.9039, 35.75513
828.3860, 37.83350
828.8681, 39.43750
829.3502, 40.55444
829.8323, 40.87183
830.3145, 40.02393
830.7966, 38.61035
831.2787, 37.37524
831.7608, 36.48633
832.2429, 36.54883
832.7250, 39.52710
833.2072, 41.75439
833.6893, 40.29785
834.1714, 36.62671
834.6535, 34.81055
835.1356, 36.77588
835.6177, 37.57715
836.0999, 35.65796
836.5820, 32.82324
837.0641, 33.37598
837.5462, 37.03711
838.0283, 40.93066
838.5104, 44.84644
838.9926, 47.26367
839.4747, 44.84717
839.9568, 40.10034
840.4389, 37.36304
840.9210, 39.76465
841.4031, 42.33081
841.8853, 44.07422
842.3674, 45.27466
842.8495, 46.33618
843.3316, 47.30200
843.8137, 47.71509
844.2958, 47.39600
844.7780, 46.78296
845.2601, 46.34937
845.7422, 46.11401
846.2243, 46.12817
846.7064, 46.37061
847.1885, 46.94043
847.6707, 49.25391
848.1528, 51.36035
848.6349, 50.72485
849.1170, 43.90015
849.5991, 40.77051
850.0812, 43.36646
850.5634, 46.83984
851.0455, 44.69727
851.5276, 37.92944
852.0097, 34.03564
852.4918, 34.12622
852.9739, 36.25122
853.4561, 40.56006
853.9382, 44.83105
854.4203, 46.18652
854.9024, 43.01074
855.3845, 40.69263
855.8666, 40.47021
856.3488, 41.15479
856.8309, 42.20093
857.3130, 43.72656
857.7951, 44.30371
858.2772, 43.80884
858.7593, 42.96045
859.2415, 42.54907
859.7236, 42.10840
860.2057, 40.49634
860.6878, 37.62622
861.1699, 35.40625
861.6520, 35.71777
862.1342, 36.16455
862.6163, 34.72266
863.0984, 31.25659
863.5805, 30.79297
864.0626, 34.77954
864.5447, 37.86401
865.0269, 36.12378
865.5090, 31.16650
865.9911, 28.78833
866.4732, 28.79272
866.9553, 29.28516
867.4374, 29.94409
867.9196, 29.75195
868.4017, 27.11182
868.8838, 22.70190
869.3659, 20.81787
869.8480, 22.79199
870.3301, 24.86060
870.8123, 26.18408
871.2944, 26.79663
871.7765, 26.50610
872.2586, 25.61108
872.7407, 25.36914
873.2228, 26.39966
873.7050, 27.81250
874.1871, 29.14331
874.6692, 30.12524
875.1513, 30.28687
875.6334, 28.64526
876.1155, 27.50952
876.5977, 27.38696
877.0798, 27.88770
877.5619, 28.50732
878.0440, 29.31372
878.5261, 29.34302
879.0082, 28.03687
879.4904, 27.01123
879.9725, 28.92432
880.4546, 32.39282
880.9367, 34.66968
881.4188, 33.35742
881.9009, 34.03882
882.3831, 41.39893
882.8652, 50.20190
883.3473, 54.80591
883.8294, 53.79419
884.3115, 53.87891
884.7936, 55.56348
885.2758, 57.34375
885.7579, 56.78809
886.2400, 55.28516
886.7221, 57.08789
887.2042, 63.13208
887.6863, 67.13672
888.1685, 64.12524
888.6506, 58.91943
889.1327, 54.09668
889.6148, 49.39502
890.0969, 49.14209
890.5790, 55.33398
891.0612, 60.72485
891.5433, 59.67114
892.0254, 54.33740
892.5075, 53.33911
892.9896, 56.14722
893.4717, 58.72217
893.9539, 57.75684
894.4360, 56.46729
894.9181, 57.95093
895.4002, 61.50952
895.8823, 61.90088
896.3644, 56.80322
896.8466, 52.67456
897.3287, 51.44043
897.8108, 52.20361
898.2929, 52.52905
898.7750, 52.58325
899.2571, 53.36060
899.7393, 56.14600
900.2214, 58.44214
900.7035, 57.95801
901.1856, 55.55566
901.6677, 52.68994
902.1498, 47.82324
902.6320, 45.07129
903.1141, 44.97510
903.5962, 46.58740
904.0783, 49.48462
904.5604, 53.42529
905.0425, 54.46436
905.5247, 51.56396
906.0068, 48.68823
906.4889, 50.39209
906.9710, 53.80493
907.4531, 55.79517
907.9352, 55.70581
908.4174, 54.91846
908.8995, 53.93433
909.3816, 52.06079
909.8637, 48.18530
910.3458, 42.28687
910.8279, 39.96826
911.3101, 41.28223
911.7922, 42.86670
912.2743, 41.73804
912.7564, 39.91846
913.2385, 39.76929
913.7206, 41.13940
914.2028, 42.32739
914.6849, 43.85376
915.1670, 43.84033
915.6491, 41.39038
916.1312, 37.10645
916.6133, 32.88354
917.0955, 28.72095
917.5776, 25.87524
918.0597, 25.03369
918.5418, 25.40161
919.0239, 26.71240
919.5060, 28.39526
919.9882, 29.30151
920.4703, 29.66187
920.9524, 28.25757
921.4345, 23.39819
921.9166, 17.87964
922.3987, 15.56323
922.8809, 16.68188
923.3630, 16.16772
923.8451, 13.08228
924.3272, 10.33374
924.8093, 12.91992
925.2914, 16.85010
925.7736, 15.96851
926.2557, 8.357666
926.7378, 2.813965
927.2199, 4.060059
927.7020, 6.121094
928.1841, 6.374756
928.6663, 4.829834
929.1484, 1.134766
929.6305, 4.850586
930.1126, 10.12988
930.5947, 12.71387
931.0768, 13.61450
931.5590, 13.51318
932.0411, 12.73560
932.5232, 12.53784
933.0053, 13.94897
933.4874, 15.26636
933.9695, 16.02100
934.4517, 16.41675
934.9338, 16.80737
935.4159, 17.18237
935.8980, 17.97437
936.3801, 19.38428
936.8622, 20.99316
937.3444, 22.78638
937.8265, 24.27710
938.3086, 24.65259
938.7907, 22.83618
939.2728, 21.66113
939.7549, 22.43164
940.2371, 23.21265
940.7192, 22.36816
941.2013, 19.88184
941.6834, 17.17993
942.1655, 14.36157
942.6476, 11.00024
943.1298, 6.534668
943.6119, 1.555664
944.0940, 3.777588
944.5761, 9.418213
945.0582, 13.74561
945.5403, 15.21436
946.0225, 16.73853
946.5046, 19.14526
946.9867, 22.32251
947.4688, 26.11743
947.9509, 30.43457
948.4330, 34.52734
948.9152, 37.33813
949.3973, 40.72925
949.8794, 46.59497
950.3615, 54.28760
950.8436, 62.70410
951.3257, 72.77612
951.8079, 81.56006
952.2900, 88.23950
952.7721, 94.47266
953.2542, 102.2390
953.7363, 111.4099
954.2184, 120.9270
954.7006, 130.7002
955.1827, 141.0518
955.6648, 152.8738
956.1469, 165.2134
956.6290, 176.7415
957.1111, 187.1606
957.5933, 199.5559
958.0754, 214.0396
958.5575, 230.4724
959.0396, 248.8621
959.5217, 268.9021
960.0038, 290.7114
960.4860, 313.8721
960.9681, 336.2585
961.4502, 355.5598
961.9323, 374.6841
962.4144, 394.3589
962.8965, 415.1096
963.3787, 437.6121
963.8608, 462.6973
964.3429, 487.8247
964.8250, 513.0542
965.3071, 537.8628
965.7892, 559.9077
966.2714, 580.8242
966.7535, 606.0894
967.2356, 637.1299
967.7177, 666.7285
968.1998, 690.0679
968.6819, 710.7917
969.1641, 730.8438
969.6462, 750.5117
970.1283, 770.2542
970.6104, 790.2920
971.0925, 810.6655
971.5746, 832.6182
972.0568, 854.5288
972.5389, 873.9221
973.0210, 890.9949
973.5031, 905.7810
973.9852, 915.0398
974.4673, 925.9421
974.9495, 941.3376
975.4316, 959.1958
975.9137, 976.0654
976.3958, 991.9009
976.8779, 1006.416
977.3600, 1018.719
977.8422, 1033.469
978.3243, 1057.138
978.8064, 1085.820
979.2885, 1114.573
979.7706, 1142.658
980.2527, 1170.345
980.7349, 1196.001
981.2170, 1223.781
981.6991, 1256.069
982.1812, 1292.175
982.6633, 1326.227
983.1454, 1358.292
983.6276, 1389.358
984.1097, 1419.593
984.5918, 1449.224
985.0739, 1480.196
985.5560, 1510.658
986.0381, 1534.933
986.5203, 1552.017
987.0024, 1564.724
987.4845, 1573.214
987.9666, 1577.413
988.4487, 1577.826
988.9308, 1574.089
989.4130, 1564.365
989.8951, 1548.010
990.3772, 1528.948
990.8593, 1508.750
991.3414, 1487.143
991.8235, 1463.832
992.3057, 1438.735
992.7878, 1411.726
993.2699, 1381.692
993.7520, 1355.086
994.2341, 1335.724
994.7162, 1321.559
995.1984, 1309.885
995.6805, 1300.605
996.1626, 1293.706
996.6447, 1289.622
997.1268, 1287.616
997.6089, 1287.183
998.0911, 1288.639
998.5732, 1292.335
999.0553, 1298.576
999.5374, 1308.899
1000.020, 1323.632
1000.502, 1339.009
1000.984, 1351.832
1001.466, 1363.243
1001.948, 1373.471
1002.430, 1381.988
1002.912, 1392.337
1003.394, 1407.988
1003.876, 1419.283
1004.359, 1421.129
1004.841, 1416.251
1005.323, 1413.077
1005.805, 1410.697
1006.287, 1405.798
1006.769, 1396.654
1007.251, 1384.979
1007.733, 1371.741
1008.216, 1356.846
1008.698, 1340.031
1009.180, 1319.947
1009.662, 1301.253
1010.144, 1283.968
1010.626, 1269.966
1011.108, 1261.091
1011.590, 1256.876
1012.072, 1254.634
1012.555, 1254.737
1013.037, 1266.310
1013.519, 1294.296
1014.001, 1332.764
1014.483, 1379.321
1014.965, 1435.375
1015.447, 1503.454
1015.929, 1584.149
1016.411, 1681.319
1016.894, 1794.632
1017.376, 1927.866
1017.858, 2082.984
1018.340, 2259.852
1018.822, 2455.993
1019.304, 2667.852
1019.786, 2909.541
1020.268, 3179.596
1020.751, 3483.512
1021.233, 3824.843
1021.715, 4205.038
1022.197, 4622.188
1022.679, 5076.955
1023.161, 5564.806
1023.643, 6094.332
1024.125, 6645.099
1024.607, 7223.647
1025.090, 7812.641
1025.572, 8386.400
1026.054, 8951.558
1026.536, 9462.514
1027.018, 9923.039
1027.500, 10303.25
1027.982, 10590.57
1028.464, 10768.97
1028.947, 10817.05
1029.429, 10722.70
1029.911, 10519.45
1030.393, 10202.92
1030.875, 9804.933
1031.357, 9331.588
1031.839, 8796.940
1032.321, 8236.485
1032.803, 7661.564
1033.286, 7097.275
1033.768, 6558.314
1034.250, 6039.666
1034.732, 5531.408
1035.214, 5040.909
1035.696, 4582.652
1036.178, 4152.766
1036.660, 3757.023
1037.143, 3391.797
1037.625, 3057.000
1038.107, 2742.698
1038.589, 2452.707
1039.071, 2198.081
1039.553, 1976.414
1040.035, 1774.301
1040.517, 1589.554
1041.000, 1421.778
1041.482, 1274.633
1041.964, 1145.156
1042.446, 1034.495
1042.928, 939.6316
1043.410, 852.0962
1043.892, 769.4236
1044.374, 693.6599
1044.856, 629.8611
1045.339, 573.3174
1045.821, 518.9263
1046.303, 466.3362
1046.785, 419.4263
1047.267, 378.5732
1047.749, 341.1060
1048.231, 306.2820
1048.713, 274.0776
1049.195, 244.9753
1049.677, 218.4880
1050.160, 194.0059
1050.642, 171.7605
1051.124, 151.0813
1051.606, 132.1338
1052.088, 114.2646
1052.570, 97.01294
1053.052, 80.16650
1053.534, 63.20557
1054.017, 45.98560
1054.499, 31.13818
1054.981, 21.41040
1055.463, 13.58032
1055.945, 6.066406
1056.427, 1.235840
1056.909, 8.265869
1057.391, 14.94165
1057.874, 22.23193
1058.356, 31.26099
1058.838, 39.27002
1059.320, 41.62769
1059.802, 41.25073
1060.284, 42.54834
1060.766, 48.00391
1061.248, 51.34717
1061.730, 52.20093
1062.213, 51.26538
1062.695, 48.70093
1063.177, 44.79370
1063.659, 39.56763
1064.141, 33.61328
1064.623, 29.74780
1065.105, 33.67822
1065.587, 35.14771
1066.070, 28.77271
1066.552, 18.25024
1067.034, 8.625732
1067.516, 1.0010000E-02
1067.998, 8.930908
1068.480, 18.19800
1068.962, 27.65381
1069.444, 36.79639
1069.927, 46.30151
1070.409, 56.66235
1070.891, 67.88647
1071.373, 81.47266
1071.855, 98.05493
1072.337, 115.5332
1072.819, 133.7927
1073.301, 152.0803
1073.783, 169.5771
1074.266, 186.3140
1074.748, 202.4834
1075.230, 218.0815
1075.712, 233.1895
1076.194, 247.8923
1076.676, 262.2126
1077.158, 276.4551
1077.640, 289.6465
1078.122, 303.3201
1078.604, 315.0850
1079.087, 326.7734
1079.569, 338.6409
1080.051, 350.8970
1080.533, 364.3110
1081.015, 377.7390
1081.497, 389.1667
1081.979, 397.5430
1082.461, 408.1387
1082.944, 421.4963
1083.426, 435.6863
1083.908, 448.7095
1084.390, 461.4373
1084.872, 475.4106
1085.354, 490.5386
1085.836, 503.7241
1086.318, 512.9709
1086.801, 523.8806
1087.283, 538.1418
1087.765, 554.2251
1088.247, 569.9556
1088.729, 585.2178
1089.211, 599.6133
1089.693, 613.3521
1090.175, 625.1394
1090.657, 632.9622
1091.140, 640.0217
1091.622, 648.3191
1092.104, 657.4614
1092.586, 664.9055
1093.068, 670.5576
1093.550, 672.9382
1094.032, 669.1157
1094.514, 665.2825
1094.997, 667.4766
1095.479, 671.6262
1095.961, 672.2239
1096.443, 668.4517
1096.925, 663.0979
1097.407, 655.8704
1097.889, 648.9229
1098.371, 644.7588
1098.854, 641.3521
1099.336, 636.6753
1099.818, 630.5291
1100.300, 622.5691
1100.782, 612.4175
1101.264, 600.5947
1101.746, 586.3364
1102.228, 572.3240
1102.710, 563.7756
1103.193, 558.0913
1103.675, 547.5803
1104.157, 531.4268
1104.639, 517.2510
1105.121, 509.9629
1105.603, 503.5437
1106.085, 495.9949
1106.567, 487.3303
1107.049, 477.5803
1107.531, 466.7036
1108.014, 455.3467
1108.496, 443.1724
1108.978, 431.5239
1109.460, 420.4788
1109.942, 410.9563
1110.424, 405.0374
1110.906, 402.9270
1111.388, 394.2656
1111.871, 378.5562
1112.353, 363.4399
1112.835, 353.5093
1113.317, 345.1113
1113.799, 334.0166
1114.281, 321.8430
1114.763, 311.3562
1115.245, 304.7104
1115.728, 296.3232
1116.210, 285.4624
1116.692, 275.1260
1117.174, 270.7432
1117.656, 267.7876
1118.138, 255.7615
1118.620, 236.6191
1119.102, 220.2114
1119.584, 211.5259
1120.067, 204.2710
1120.549, 198.4077
1121.031, 192.2585
1121.513, 182.7275
1121.995, 170.9832
1122.477, 161.4119
1122.959, 153.8755
1123.441, 145.6238
1123.924, 133.3091
1124.406, 123.1404
1124.888, 118.5557
1125.370, 117.2378
1125.852, 112.4873
1126.334, 104.5557
1126.816, 97.40283
1127.298, 92.09375
1127.781, 87.34717
1128.263, 82.95752
1128.745, 78.23315
1129.227, 71.92139
1129.709, 64.17676
1130.191, 59.92480
1130.673, 59.36743
1131.155, 58.25928
1131.637, 53.96362
1132.120, 49.94214
1132.602, 50.77686
1133.084, 53.74536
1133.566, 54.88232
1134.048, 52.72168
1134.530, 52.19434
1135.012, 53.73389
1135.494, 55.00635
1135.976, 53.49414
1136.458, 51.42163
1136.941, 52.80225
1137.423, 56.52393
1137.905, 59.84204
1138.387, 61.37646
1138.869, 63.50293
1139.351, 66.50195
1139.833, 69.70361
1140.315, 72.85742
1140.798, 75.55493
1141.280, 76.32153
1141.762, 75.45312
1142.244, 75.12476
1142.726, 75.87061
1143.208, 78.06470
1143.690, 82.21216
1144.172, 87.04102
1144.655, 90.31323
1145.137, 92.46875
1145.619, 95.76074
1146.101, 100.4985
1146.583, 105.4421
1147.065, 109.6084
1147.547, 114.6023
1148.029, 121.5535
1148.511, 129.5127
1148.994, 135.9746
1149.476, 140.9866
1149.958, 145.5535
1150.440, 150.0442
1150.922, 154.5981
1151.404, 158.8247
1151.886, 163.4563
1152.368, 168.9116
1152.851, 174.8716
1153.333, 181.1204
1153.815, 187.7310
1154.297, 194.1624
1154.779, 200.0798
1155.261, 205.9990
1155.743, 212.0400
1156.225, 218.2053
1156.708, 224.8987
1157.190, 232.6096
1157.672, 237.6165
1158.154, 239.6648
1158.636, 241.5085
1159.118, 245.0977
1159.600, 248.7676
1160.082, 250.1296
1160.564, 250.4717
1161.047, 252.0969
1161.529, 255.1423
1162.011, 260.6216
1162.493, 269.1572
1162.975, 278.0757
1163.457, 285.4016
1163.939, 291.6750
1164.421, 297.1462
1164.903, 302.1943
1165.385, 308.0312
1165.868, 315.0161
1166.350, 322.8147
1166.832, 331.4944
1167.314, 340.0195
1167.796, 347.6602
1168.278, 354.4907
1168.760, 360.3916
1169.242, 365.4949
1169.725, 370.1956
1170.207, 373.4431
1170.689, 377.6116
1171.171, 383.5442
1171.653, 389.9583
1172.135, 394.5764
1172.617, 398.1602
1173.099, 403.1084
1173.582, 409.6638
1174.064, 414.7280
1174.546, 416.0833
1175.028, 417.1467
1175.510, 418.7307
1175.992, 420.4670
1176.474, 421.5349
1176.956, 421.9709
1177.438, 422.0266
1177.921, 421.7031
1178.403, 421.4346
1178.885, 422.6821
1179.367, 422.4990
1179.849, 419.3953
1180.331, 414.2097
1180.813, 410.0605
1181.295, 406.4104
1181.778, 401.1401
1182.260, 393.5532
1182.742, 384.8408
1183.224, 375.8428
1183.706, 365.1296
1184.188, 351.0471
1184.670, 334.6155
1185.152, 322.9778
1185.635, 315.1897
1186.117, 305.9438
1186.599, 293.3235
1187.081, 278.7180
1187.563, 261.6082
1188.045, 243.8713
1188.527, 226.1809
1189.009, 208.9443
1189.491, 196.9260
1189.974, 189.3484
1190.456, 180.2639
1190.938, 165.1521
1191.420, 149.9094
1191.902, 137.2249
1192.384, 125.9666
1192.866, 114.7383
1193.348, 103.3481
1193.830, 92.64575
1194.313, 82.56030
1194.795, 72.29810
1195.277, 58.62744
1195.759, 47.54492
1196.241, 45.17383
1196.723, 45.75635
1197.205, 41.88989
1197.687, 33.44922
1198.169, 26.23267
1198.652, 20.55273
1199.134, 14.53442
1199.616, 5.172607
1200.098, 2.925049
1200.580, 5.994873
1201.062, 6.374512
1201.544, 8.158447
1202.026, 11.36914
1202.509, 12.59717
1202.991, 11.55762
1203.473, 10.28760
1203.955, 9.529785
1204.437, 9.825195
1204.919, 12.89526
1205.401, 16.87012
1205.883, 17.65356
1206.365, 15.22290
1206.848, 11.06738
1207.330, 5.272217
1207.812, 1.438477
1208.294, 3.561035
1208.776, 7.530762
1209.258, 11.82764
1209.740, 15.40430
1210.222, 14.47949
1210.705, 8.963867
1211.187, 5.444336
1211.669, 5.131348
1212.151, 6.028076
1212.633, 7.680908
1213.115, 8.891846
1213.597, 8.224121
1214.079, 6.286133
1214.562, 5.362549
1215.044, 5.440918
1215.526, 5.614746
1216.008, 5.816162
1216.490, 5.465576
1216.972, 4.005615
1217.454, 1.879150
1217.936, 0.9467770
1218.418, 4.093750
1218.901, 6.069092
1219.383, 6.819824
1219.865, 5.611084
1220.347, 1.631592
1220.829, 2.005127
1221.311, 3.027100
1221.793, 2.642334
1222.275, 1.562012
1222.757, 1.3428000E-02
1223.240, 0.5031740
1223.722, 8.2030997E-02
1224.204, 0.9006350
1224.686, 4.531738
1225.168, 7.136475
1225.650, 5.575928
1226.132, 2.429932
1226.614, 0.8166500
1227.096, 3.855713
1227.579, 3.534424
1228.061, 0.2224120
1228.543, 2.765869
1229.025, 3.814941
1229.507, 5.022461
1229.989, 8.644287
1230.471, 11.86890
1230.953, 12.07812
1231.436, 13.85229
1231.918, 14.68555
1232.400, 13.24609
1232.882, 14.61743
1233.364, 11.62720
1233.846, 9.063477
1234.328, 9.527344
1234.810, 11.12476
1235.292, 12.86060
1235.775, 14.59521
1236.257, 14.48999
1236.739, 13.02490
1237.221, 12.67725
1237.703, 15.22339
1238.185, 17.96362
1238.667, 20.46021
1239.149, 22.15967
1239.632, 22.10986
1240.114, 20.80688
1240.596, 21.43823
1241.078, 23.51782
1241.560, 24.97559
1242.042, 24.45044
1242.524, 23.75586
1243.006, 23.20972
1243.489, 22.80981
1243.971, 22.58740
1244.453, 22.45361
1244.935, 22.98438
1245.417, 23.35986
1245.899, 23.92065
1246.381, 25.60303
1246.863, 26.12915
1247.345, 24.65454
1247.828, 23.14355
1248.310, 23.81519
1248.792, 25.64575
1249.274, 24.79150
1249.756, 22.51660
1250.238, 23.13867
1250.720, 33.14966
1251.202, 38.04541
1251.684, 35.01440
1252.167, 29.89355
1252.649, 27.45386
1253.131, 27.38501
1253.613, 27.84912
1254.095, 28.07886
1254.577, 29.14771
1255.059, 33.37329
1255.541, 34.07275
1256.023, 29.37036
1256.506, 24.17114
1256.988, 21.51587
1257.470, 20.24927
1257.952, 22.01538
1258.434, 25.84985
1258.916, 26.12329
1259.398, 20.36621
1259.880, 17.29517
1260.363, 17.99756
1260.845, 20.00195
1261.327, 22.78540
1261.809, 23.40454
1262.291, 19.44629
1262.773, 12.76880
1263.255, 7.002930
1263.737, 2.663330
1264.219, 0.2668460
1264.702, 0.8620610
1265.184, 0.5395510
1265.666, 2.420654
1266.148, 5.845459
1266.630, 8.719238
1267.112, 10.72827
1267.594, 11.77881
1268.076, 11.64624
1268.559, 10.84326
1269.041, 9.637695
1269.523, 8.846924
1270.005, 9.994141
1270.487, 11.12158
1270.969, 10.13013
1271.451, 8.448242
1271.933, 8.022217
1272.416, 8.792725
1272.898, 11.97461
1273.380, 17.33789
1273.862, 21.28760
1274.344, 20.39038
1274.826, 19.33936
1275.308, 19.59473
1275.790, 20.59277
1276.272, 21.36719
1276.755, 22.66504
1277.237, 23.15698
1277.719, 22.68384
1278.201, 21.12866
1278.683, 15.64478
1279.165, 13.19189
1279.647, 15.16895
1280.129, 19.33496
1280.611, 24.40259
1281.094, 28.81372
1281.576, 30.94482
1282.058, 31.08911
1282.540, 29.36914
1283.022, 22.87231
1283.504, 18.07349
1283.986, 17.97656
1284.468, 20.12842
1284.950, 21.13989
1285.433, 21.09961
1285.915, 19.46118
1286.397, 17.34375
1286.879, 17.64941
1287.361, 21.55249
1287.843, 24.71777
1288.325, 26.66431
1288.807, 26.70947
1289.290, 23.82202
1289.772, 20.17554
1290.254, 17.29858
1290.736, 14.71436
1291.218, 12.49780
1291.700, 11.98950
1292.182, 10.75610
1292.664, 12.42993
1293.146, 14.22510
1293.629, 15.72998
1294.111, 16.46240
1294.593, 16.14575
1295.075, 15.06909
1295.557, 12.85132
1296.039, 9.796387
1296.521, 8.987549
1297.003, 10.26001
1297.486, 10.75000
1297.968, 8.427002
1298.450, 6.413330
1298.932, 5.947021
1299.414, 5.676270
1299.896, 3.515137
1300.378, 0.6030270
1300.860, 0.1608890
1301.343, 1.096436
1301.825, 0.0000000E+00
##END=



