##NAMES=Zincolibethenite
##RRUFFID=R060763
##IDEAL CHEMISTRY=Cu^2+^Zn^2+^P^5+^O_4_(OH)
##LOCALITY=Kabwe mine, Kabwe, Zambia
##OWNER=RRUFF
##SOURCE=Michael Scott
##DESCRIPTION=Pale greenish-blue botryoidal groups of radiating crystals, associated with colorless tarbuttite
##STATUS=The identification of this mineral has been confirmed only by single crystal X-ray diffraction.
##URL=rruff.info/R060763
89.78320, 0.0000000E+00
90.26532, 5.507568
90.74744, 15.42896
91.22955, 27.63403
91.71167, 42.57227
92.19379, 60.82690
92.67590, 82.15942
93.15802, 100.4375
93.64014, 113.3501
94.12225, 122.4817
94.60437, 127.6438
95.08649, 127.3213
95.56860, 120.2825
96.05072, 110.5779
96.53284, 102.8870
97.01495, 100.0359
97.49707, 100.1987
97.97919, 106.3813
98.46130, 104.1653
98.94342, 90.41748
99.42554, 74.59277
99.90765, 67.72485
100.3898, 72.65820
100.8719, 78.77881
101.3540, 73.80688
101.8361, 56.10522
102.3182, 37.73608
102.8004, 22.64453
103.2825, 11.39575
103.7646, 3.072021
104.2467, 1.441162
104.7288, 3.394043
105.2109, 6.208740
105.6931, 12.55811
106.1752, 15.74634
106.6573, 12.55566
107.1394, 0.8173830
107.6215, 14.17676
108.1036, 31.10327
108.5858, 49.49194
109.0679, 56.54907
109.5500, 41.42969
110.0321, 23.43481
110.5142, 12.89258
110.9963, 14.80298
111.4785, 18.37305
111.9606, 23.27710
112.4427, 29.42944
112.9248, 34.55640
113.4069, 37.60449
113.8890, 40.05542
114.3712, 43.08862
114.8533, 46.55298
115.3354, 50.74902
115.8175, 56.77661
116.2996, 65.14771
116.7817, 70.89136
117.2639, 70.08911
117.7460, 66.32617
118.2281, 64.14185
118.7102, 66.30371
119.1923, 69.76392
119.6744, 72.01001
120.1566, 72.03003
120.6387, 74.10400
121.1208, 82.48145
121.6029, 94.76440
122.0850, 106.0815
122.5671, 109.5444
123.0493, 112.6152
123.5314, 124.6023
124.0135, 150.3135
124.4956, 176.6760
124.9777, 188.8242
125.4598, 189.8191
125.9420, 191.1030
126.4241, 201.7881
126.9062, 217.5630
127.3883, 230.4536
127.8704, 238.0620
128.3525, 243.0654
128.8347, 249.6895
129.3168, 257.8286
129.7989, 265.0957
130.2810, 269.8640
130.7631, 272.2578
131.2452, 273.1021
131.7274, 272.6638
132.2095, 270.8147
132.6916, 266.2112
133.1737, 258.4099
133.6558, 251.1392
134.1379, 248.1416
134.6201, 249.3984
135.1022, 252.1562
135.5843, 255.7942
136.0664, 260.3047
136.5485, 265.5596
137.0306, 273.5059
137.5128, 283.1982
137.9949, 293.2483
138.4770, 303.8792
138.9591, 314.5701
139.4412, 326.0098
139.9233, 338.1985
140.4055, 348.8101
140.8876, 359.4585
141.3697, 369.6948
141.8518, 377.9565
142.3339, 381.8784
142.8160, 388.8887
143.2982, 401.6528
143.7803, 420.4817
144.2624, 443.9631
144.7445, 473.8979
145.2266, 508.0051
145.7087, 540.0757
146.1909, 573.8435
146.6730, 601.7051
147.1551, 621.6379
147.6372, 639.2397
148.1193, 641.0752
148.6014, 623.0200
149.0836, 588.7441
149.5657, 549.7771
150.0478, 504.4199
150.5299, 456.6047
151.0120, 407.6594
151.4941, 349.7429
151.9763, 300.3730
152.4584, 261.4783
152.9405, 231.9824
153.4226, 205.4636
153.9047, 182.5012
154.3868, 161.6621
154.8690, 142.1489
155.3511, 120.5017
155.8332, 103.7080
156.3153, 95.57935
156.7974, 94.97485
157.2795, 92.59058
157.7617, 84.06128
158.2438, 74.42017
158.7259, 67.29419
159.2080, 65.14648
159.6901, 63.98584
160.1722, 62.64551
160.6544, 61.13525
161.1365, 60.16235
161.6186, 59.71313
162.1007, 59.94263
162.5828, 61.20898
163.0649, 65.64526
163.5471, 68.99756
164.0292, 68.86377
164.5113, 65.52832
164.9934, 63.52954
165.4755, 65.39868
165.9576, 68.73315
166.4398, 70.60376
166.9219, 67.06787
167.4040, 63.50513
167.8861, 64.26001
168.3682, 69.80908
168.8503, 75.16577
169.3325, 76.01025
169.8146, 74.65234
170.2967, 74.77344
170.7788, 78.60596
171.2609, 84.32373
171.7430, 90.71167
172.2252, 97.90283
172.7073, 104.4365
173.1894, 107.7268
173.6715, 109.4568
174.1536, 113.0798
174.6357, 123.1228
175.1179, 134.9360
175.6000, 142.7244
176.0821, 145.5808
176.5642, 146.3191
177.0463, 148.4104
177.5284, 150.8035
178.0106, 150.2214
178.4927, 144.5527
178.9748, 134.8835
179.4569, 122.9714
179.9390, 108.8423
180.4211, 92.82495
180.9033, 73.33496
181.3854, 51.30151
181.8675, 31.51660
182.3496, 17.45557
182.8317, 7.613037
183.3138, 2.592529
183.7960, 14.10303
184.2781, 24.52734
184.7602, 29.63867
185.2423, 29.91382
185.7244, 29.11279
186.2065, 29.95142
186.6887, 31.69214
187.1708, 31.19629
187.6529, 27.69702
188.1350, 22.86279
188.6171, 20.38135
189.0992, 20.11768
189.5814, 18.37085
190.0635, 11.86499
190.5456, 1.192383
191.0277, 8.551270
191.5098, 16.66821
191.9919, 23.95972
192.4741, 31.74512
192.9562, 39.99683
193.4383, 48.44946
193.9204, 55.92114
194.4025, 62.62671
194.8846, 72.67383
195.3668, 87.33203
195.8489, 104.6797
196.3310, 120.1816
196.8131, 133.6553
197.2952, 146.5371
197.7773, 159.7932
198.2595, 173.3591
198.7416, 187.5693
199.2237, 202.6238
199.7058, 218.0442
200.1879, 231.5735
200.6700, 242.7273
201.1522, 255.0081
201.6343, 271.2803
202.1164, 291.9331
202.5985, 313.0964
203.0806, 334.6133
203.5627, 355.9680
204.0449, 373.8335
204.5270, 386.3745
205.0091, 401.3857
205.4912, 426.2922
205.9733, 463.5481
206.4554, 495.4771
206.9376, 518.8479
207.4197, 535.7029
207.9018, 554.2703
208.3839, 574.3110
208.8660, 596.8374
209.3481, 623.1138
209.8303, 654.5278
210.3124, 684.4065
210.7945, 712.3540
211.2766, 738.1421
211.7587, 762.4253
212.2408, 786.4917
212.7230, 806.4773
213.2051, 819.7034
213.6872, 825.0244
214.1693, 827.3823
214.6514, 827.2581
215.1335, 824.4221
215.6157, 817.8855
216.0978, 807.1284
216.5799, 793.3289
217.0620, 777.4290
217.5441, 760.1455
218.0262, 737.9353
218.5084, 708.5449
218.9905, 673.5171
219.4726, 642.4360
219.9547, 616.6248
220.4368, 591.8162
220.9189, 565.1743
221.4011, 534.7197
221.8832, 507.5242
222.3653, 485.1116
222.8474, 466.4705
223.3295, 445.6580
223.8116, 421.5500
224.2938, 397.7507
224.7759, 376.4600
225.2580, 358.3660
225.7401, 341.4192
226.2222, 325.3418
226.7043, 310.2424
227.1865, 296.0759
227.6686, 283.1091
228.1507, 270.9468
228.6328, 259.7463
229.1149, 250.5349
229.5970, 239.8225
230.0792, 226.8137
230.5613, 212.1824
231.0434, 198.6948
231.5255, 186.0500
232.0076, 175.2917
232.4897, 167.2849
232.9719, 163.0042
233.4540, 159.5823
233.9361, 157.7542
234.4182, 156.6970
234.9003, 153.2229
235.3824, 145.5635
235.8646, 138.0154
236.3467, 132.2991
236.8288, 127.2646
237.3109, 126.9028
237.7930, 133.7842
238.2751, 144.9565
238.7573, 150.7808
239.2394, 147.2505
239.7215, 144.0000
240.2036, 145.6155
240.6857, 154.7532
241.1678, 162.4517
241.6500, 167.9043
242.1321, 171.5693
242.6142, 175.0972
243.0963, 179.1089
243.5784, 182.7117
244.0605, 185.3225
244.5427, 186.6665
245.0248, 187.9011
245.5069, 189.7795
245.9890, 191.5940
246.4711, 191.6589
246.9532, 190.5300
247.4354, 186.6558
247.9175, 179.0166
248.3996, 165.7944
248.8817, 155.0645
249.3638, 147.5969
249.8459, 142.1553
250.3281, 136.7712
250.8102, 132.6694
251.2923, 126.5505
251.7744, 116.5183
252.2565, 101.0823
252.7386, 88.52759
253.2208, 79.63770
253.7029, 73.06641
254.1850, 66.37451
254.6671, 58.41211
255.1492, 52.48071
255.6313, 49.70728
256.1135, 50.29810
256.5956, 52.50366
257.0777, 57.49707
257.5598, 63.15137
258.0419, 65.83545
258.5240, 63.97681
259.0062, 61.74390
259.4883, 59.81787
259.9704, 58.08252
260.4525, 60.21338
260.9346, 67.62598
261.4167, 76.93750
261.8989, 84.31250
262.3810, 89.10571
262.8631, 93.47021
263.3452, 97.79370
263.8273, 102.1487
264.3094, 105.8965
264.7916, 108.8457
265.2737, 111.8123
265.7558, 115.6936
266.2379, 120.6389
266.7200, 126.1794
267.2021, 132.7761
267.6843, 140.2041
268.1664, 145.6323
268.6485, 147.9128
269.1306, 150.4651
269.6127, 156.8311
270.0948, 168.2468
270.5770, 177.2983
271.0591, 181.6494
271.5412, 182.5896
272.0233, 186.8066
272.5054, 194.7180
272.9875, 204.3767
273.4697, 214.6938
273.9518, 225.9407
274.4339, 236.5005
274.9160, 245.7698
275.3981, 254.4436
275.8802, 264.9985
276.3624, 277.5320
276.8445, 290.9983
277.3266, 304.3633
277.8087, 317.4954
278.2908, 333.0349
278.7729, 351.5400
279.2551, 372.2056
279.7372, 393.5505
280.2193, 416.0952
280.7014, 436.5227
281.1835, 451.4529
281.6656, 461.0325
282.1478, 475.4817
282.6299, 495.9890
283.1120, 519.9224
283.5941, 543.9021
284.0762, 568.1272
284.5583, 590.2124
285.0405, 607.3682
285.5226, 620.5068
286.0047, 639.3113
286.4868, 665.2170
286.9689, 692.1619
287.4510, 711.0354
287.9332, 722.2078
288.4153, 733.6814
288.8974, 749.6807
289.3795, 768.3730
289.8616, 782.2432
290.3438, 791.0464
290.8259, 796.6184
291.3080, 801.2554
291.7901, 804.5640
292.2722, 804.4233
292.7543, 799.2581
293.2365, 790.5864
293.7186, 782.1157
294.2007, 773.9377
294.6828, 764.3430
295.1649, 752.3364
295.6470, 737.8347
296.1292, 719.9973
296.6113, 698.1765
297.0934, 673.6768
297.5755, 647.0510
298.0576, 618.4983
298.5397, 591.3298
299.0219, 569.8970
299.5040, 551.1895
299.9861, 528.5591
300.4682, 499.6211
300.9503, 468.8157
301.4324, 441.0679
301.9146, 416.0369
302.3967, 391.0496
302.8788, 362.9060
303.3609, 334.4648
303.8430, 311.4351
304.3251, 295.9971
304.8073, 280.6125
305.2894, 256.8413
305.7715, 227.4810
306.2536, 198.7329
306.7357, 172.5098
307.2178, 149.2812
307.7000, 130.3394
308.1821, 115.9368
308.6642, 103.6406
309.1463, 92.53320
309.6284, 82.21118
310.1105, 71.91821
310.5927, 60.64087
311.0748, 49.90234
311.5569, 40.89233
312.0390, 33.64111
312.5211, 26.89136
313.0032, 20.28906
313.4854, 13.65747
313.9675, 6.885010
314.4496, 2.597900
314.9317, 9.842529
315.4138, 10.70386
315.8959, 6.276367
316.3781, 3.458740
316.8602, 6.518066
317.3423, 11.55908
317.8244, 15.80029
318.3065, 18.56616
318.7886, 20.52905
319.2708, 22.09473
319.7529, 23.05420
320.2350, 22.78589
320.7171, 20.47070
321.1992, 17.43555
321.6813, 14.28564
322.1635, 11.02490
322.6456, 7.962646
323.1277, 5.414551
323.6098, 3.119385
324.0919, 0.6115720
324.5740, 1.232910
325.0562, 4.082520
325.5383, 9.188721
326.0204, 17.80640
326.5025, 23.72461
326.9846, 23.96729
327.4667, 22.41406
327.9489, 23.21973
328.4310, 27.84937
328.9131, 33.35425
329.3952, 39.35547
329.8773, 45.87183
330.3594, 53.48218
330.8416, 63.20532
331.3237, 73.09277
331.8058, 81.88721
332.2879, 89.73706
332.7700, 95.90576
333.2521, 98.21167
333.7343, 98.49536
334.2164, 106.3604
334.6985, 125.6130
335.1806, 146.5273
335.6627, 163.8235
336.1448, 175.9404
336.6270, 187.6482
337.1091, 198.7708
337.5912, 209.8127
338.0733, 221.7534
338.5554, 234.4978
339.0375, 248.3083
339.5197, 264.0547
340.0018, 281.7524
340.4839, 295.8196
340.9660, 304.9653
341.4481, 312.9319
341.9302, 323.7820
342.4124, 337.5305
342.8945, 352.8381
343.3766, 371.0823
343.8587, 390.8555
344.3408, 405.1699
344.8229, 413.2361
345.3051, 420.1084
345.7872, 430.4214
346.2693, 443.7180
346.7514, 457.6165
347.2335, 471.9937
347.7156, 486.2583
348.1978, 500.1387
348.6799, 513.4021
349.1620, 522.6514
349.6441, 522.8757
350.1262, 517.5356
350.6083, 515.8052
351.0905, 519.9812
351.5726, 523.6509
352.0547, 518.5168
352.5368, 506.3809
353.0189, 492.9707
353.5010, 481.7100
353.9832, 470.6746
354.4653, 458.1123
354.9474, 443.7844
355.4295, 426.2229
355.9116, 401.4719
356.3937, 373.2258
356.8759, 347.3726
357.3580, 326.0991
357.8401, 307.6968
358.3222, 291.5647
358.8043, 277.3052
359.2864, 264.0244
359.7686, 252.2532
360.2507, 240.6807
360.7328, 228.1399
361.2149, 213.0679
361.6970, 198.9885
362.1791, 188.1543
362.6613, 179.3213
363.1434, 169.6714
363.6255, 156.2000
364.1076, 143.3245
364.5897, 133.1343
365.0718, 126.5342
365.5540, 120.8433
366.0361, 116.8159
366.5182, 113.0610
367.0003, 107.9092
367.4824, 99.74121
367.9645, 91.71704
368.4467, 84.23853
368.9288, 77.44263
369.4109, 71.89453
369.8930, 68.23853
370.3751, 65.45190
370.8572, 63.00415
371.3394, 62.19189
371.8215, 59.52539
372.3036, 53.31909
372.7857, 44.82568
373.2678, 39.58716
373.7499, 39.02905
374.2321, 39.58228
374.7142, 39.39697
375.1963, 38.09814
375.6784, 36.91797
376.1605, 35.67065
376.6426, 34.88086
377.1248, 36.00708
377.6069, 39.75513
378.0890, 41.48535
378.5711, 39.00171
379.0532, 33.06665
379.5353, 28.99219
380.0175, 26.89185
380.4996, 25.99170
380.9817, 25.76782
381.4638, 26.15869
381.9459, 26.81812
382.4280, 27.75146
382.9102, 28.62256
383.3923, 28.81396
383.8744, 28.34131
384.3565, 27.51074
384.8386, 26.09644
385.3207, 24.49609
385.8029, 23.64136
386.2850, 23.70142
386.7671, 24.04004
387.2492, 25.18262
387.7313, 26.16699
388.2134, 24.73975
388.6956, 17.00171
389.1777, 8.347412
389.6598, 4.072998
390.1419, 4.093018
390.6240, 4.698486
391.1061, 4.364502
391.5883, 3.216797
392.0704, 1.264648
392.5525, 2.669189
393.0346, 5.672119
393.5167, 5.631348
393.9988, 3.516113
394.4810, 2.076416
394.9631, 2.545410
395.4452, 3.709717
395.9273, 5.223633
396.4094, 7.487305
396.8915, 8.711670
397.3737, 7.896729
397.8558, 6.144043
398.3379, 4.806885
398.8200, 5.596924
399.3021, 5.241211
399.7842, 2.378662
400.2664, 2.939209
400.7485, 6.168701
401.2306, 5.450195
401.7127, 4.307617
402.1948, 5.022461
402.6769, 8.516357
403.1591, 11.94214
403.6412, 15.92651
404.1233, 19.36523
404.6054, 19.18286
405.0875, 14.26050
405.5696, 9.021973
406.0518, 5.105713
406.5339, 2.553223
407.0160, 1.147949
407.4981, 1.154297
407.9802, 1.748779
408.4623, 1.738770
408.9445, 1.209961
409.4266, 1.975830
409.9087, 5.400635
410.3908, 9.791748
410.8729, 10.31665
411.3550, 7.141602
411.8372, 4.216064
412.3193, 4.702393
412.8014, 7.515137
413.2835, 10.30566
413.7656, 12.92529
414.2477, 14.85913
414.7299, 13.75171
415.2120, 11.32056
415.6941, 11.73267
416.1762, 19.82471
416.6583, 29.64746
417.1404, 36.02124
417.6226, 38.88257
418.1047, 40.04565
418.5868, 38.94604
419.0689, 37.37305
419.5510, 37.04785
420.0331, 38.59595
420.5153, 41.20508
420.9974, 46.76343
421.4795, 53.35669
421.9616, 55.77319
422.4437, 47.40015
422.9258, 39.26318
423.4080, 36.48462
423.8901, 41.18286
424.3722, 45.05151
424.8543, 47.94922
425.3364, 49.62427
425.8185, 49.55420
426.3007, 43.98975
426.7828, 42.45996
427.2649, 48.64185
427.7470, 60.71753
428.2291, 66.33472
428.7112, 61.99097
429.1934, 57.10889
429.6755, 57.28931
430.1576, 63.79053
430.6397, 68.73291
431.1218, 71.77002
431.6039, 73.32422
432.0861, 73.49609
432.5682, 72.12134
433.0503, 71.92529
433.5324, 74.31763
434.0145, 78.56396
434.4966, 82.08374
434.9788, 84.89258
435.4609, 87.61328
435.9430, 90.57544
436.4251, 93.94360
436.9072, 98.24170
437.3893, 103.9258
437.8715, 109.7937
438.3536, 113.9265
438.8357, 117.0356
439.3178, 121.1118
439.7999, 128.7583
440.2820, 136.8040
440.7642, 141.6580
441.2463, 143.1279
441.7284, 144.9719
442.2105, 149.3699
442.6926, 155.0151
443.1747, 160.8577
443.6569, 166.4385
444.1390, 172.3794
444.6211, 179.1318
445.1032, 186.4170
445.5853, 193.1670
446.0674, 199.1567
446.5496, 204.7646
447.0317, 209.9539
447.5138, 214.5955
447.9959, 219.8159
448.4780, 225.1057
448.9601, 231.5698
449.4423, 240.8083
449.9244, 254.8662
450.4065, 266.8438
450.8886, 275.5168
451.3707, 281.5630
451.8528, 287.5789
452.3350, 293.6809
452.8171, 299.2017
453.2992, 302.3130
453.7813, 302.8887
454.2634, 310.9246
454.7455, 328.1377
455.2277, 347.7441
455.7098, 363.0476
456.1919, 374.0232
456.6740, 380.7012
457.1561, 380.7046
457.6382, 378.5605
458.1204, 383.0596
458.6025, 393.2610
459.0846, 402.8220
459.5667, 407.2217
460.0488, 408.8420
460.5309, 410.7400
461.0131, 413.3826
461.4952, 416.1404
461.9773, 419.3762
462.4594, 422.2744
462.9415, 423.6965
463.4236, 422.9805
463.9058, 420.2546
464.3879, 415.4819
464.8700, 408.6443
465.3521, 399.9976
465.8342, 387.7593
466.3163, 374.9697
466.7985, 363.2092
467.2806, 352.6904
467.7627, 343.3364
468.2448, 336.0828
468.7269, 329.5042
469.2090, 321.5361
469.6912, 311.0710
470.1733, 301.2097
470.6554, 293.0801
471.1375, 286.3633
471.6196, 277.9402
472.1017, 267.2500
472.5839, 256.2534
473.0660, 246.5081
473.5481, 238.1226
474.0302, 228.2854
474.5123, 216.6860
474.9944, 203.6726
475.4766, 188.8311
475.9587, 172.6565
476.4408, 157.9077
476.9229, 144.5095
477.4050, 134.1309
477.8871, 132.0034
478.3693, 137.2227
478.8514, 141.2585
479.3335, 137.3333
479.8156, 129.1604
480.2977, 120.3179
480.7798, 110.3770
481.2620, 103.4534
481.7441, 103.5012
482.2262, 107.6855
482.7083, 111.8398
483.1904, 114.2869
483.6725, 116.6628
484.1547, 120.5107
484.6368, 125.4592
485.1189, 127.1833
485.6010, 123.8784
486.0831, 118.0012
486.5652, 110.4585
487.0474, 98.87207
487.5295, 90.82764
488.0116, 88.45801
488.4937, 88.11133
488.9758, 84.25537
489.4579, 75.32764
489.9401, 67.67627
490.4222, 62.92090
490.9043, 60.59229
491.3864, 58.40479
491.8685, 56.28955
492.3506, 54.79248
492.8328, 55.92773
493.3149, 58.43018
493.7970, 55.41943
494.2791, 45.52539
494.7612, 34.58887
495.2433, 29.66650
495.7255, 28.94678
496.2076, 27.74365
496.6897, 24.27490
497.1718, 19.74121
497.6539, 14.72998
498.1360, 9.515137
498.6182, 5.044922
499.1003, 0.6303710
499.5824, 2.005371
500.0645, 0.6010740
500.5466, 6.496094
501.0287, 11.10791
501.5109, 8.691895
501.9930, 3.573242
502.4751, 7.0800997E-02
502.9572, 2.6854999E-02
503.4393, 3.0273000E-02
503.9214, 9.6680000E-02
504.4036, 0.3466800
504.8857, 1.199707
505.3678, 2.998047
505.8499, 4.779297
506.3320, 6.265625
506.8141, 7.473145
507.2963, 7.774414
507.7784, 6.982422
508.2605, 5.663574
508.7426, 4.221191
509.2247, 2.670898
509.7068, 1.158691
510.1890, 0.5644530
510.6711, 1.674316
511.1532, 0.5986330
511.6353, 5.328125
512.1174, 8.015137
512.5995, 3.806641
513.0817, 2.329590
513.5638, 3.757813
514.0459, 0.5527340
514.5280, 2.361328
515.0101, 1.032227
515.4922, 1.663574
515.9744, 2.925293
516.4565, 1.408691
516.9386, 7.8125000E-02
517.4207, 0.4023440
517.9028, 1.478027
518.3849, 1.798340
518.8671, 1.354492
519.3492, 0.1616210
519.8313, 3.869629
520.3134, 9.441895
520.7955, 11.93213
521.2776, 10.90869
521.7598, 7.504395
522.2419, 1.523926
522.7240, 8.171875
523.2061, 14.41162
523.6882, 16.89893
524.1703, 16.29785
524.6525, 11.90186
525.1346, 4.101074
525.6167, 0.7202150
526.0988, 0.1665040
526.5809, 3.956055
527.0630, 5.194336
527.5452, 4.479492
528.0273, 5.110840
528.5094, 10.56494
528.9915, 17.66602
529.4736, 23.05371
529.9557, 26.47510
530.4379, 28.71729
530.9200, 28.90381
531.4021, 28.78174
531.8842, 29.96875
532.3663, 31.63916
532.8484, 36.25684
533.3306, 47.32520
533.8127, 61.50146
534.2948, 71.40771
534.7769, 72.64453
535.2590, 74.12891
535.7411, 77.93115
536.2233, 83.97949
536.7054, 90.38037
537.1875, 98.12695
537.6696, 104.3374
538.1517, 105.6230
538.6339, 101.2163
539.1160, 103.7134
539.5981, 115.6006
540.0802, 129.3828
540.5623, 133.0947
541.0444, 128.9893
541.5266, 130.3545
542.0087, 143.5737
542.4908, 161.6431
542.9729, 174.8306
543.4550, 183.9023
543.9371, 192.5176
544.4193, 203.4175
544.9014, 214.3301
545.3835, 222.7241
545.8656, 228.1885
546.3477, 234.9238
546.8298, 247.0132
547.3120, 259.8818
547.7941, 269.5864
548.2762, 271.2153
548.7583, 275.6333
549.2404, 285.5562
549.7225, 298.1250
550.2047, 308.5586
550.6868, 316.2710
551.1689, 322.9316
551.6510, 328.5020
552.1331, 333.2827
552.6152, 338.9448
553.0974, 345.5757
553.5795, 352.9443
554.0616, 361.2363
554.5437, 370.3350
555.0258, 379.2183
555.5079, 387.9058
555.9901, 396.6772
556.4722, 405.4634
556.9543, 414.7495
557.4364, 425.2720
557.9185, 437.0610
558.4006, 450.9375
558.8828, 469.8994
559.3649, 491.4180
559.8470, 510.1738
560.3291, 522.6284
560.8112, 532.8394
561.2933, 543.1724
561.7755, 553.6509
562.2576, 560.5352
562.7397, 558.8989
563.2218, 556.8032
563.7039, 559.0078
564.1860, 570.3262
564.6682, 573.0938
565.1503, 565.0005
565.6324, 551.6270
566.1145, 539.7305
566.5966, 529.4087
567.0787, 519.6968
567.5609, 510.3706
568.0430, 501.7114
568.5251, 494.9897
569.0072, 489.9243
569.4893, 484.3003
569.9714, 476.3794
570.4536, 467.9189
570.9357, 460.7852
571.4178, 454.8306
571.8999, 449.0161
572.3820, 442.6216
572.8641, 436.0708
573.3463, 430.1240
573.8284, 426.0088
574.3105, 419.0654
574.7926, 403.1245
575.2747, 385.2314
575.7568, 374.4907
576.2390, 382.5811
576.7211, 382.7920
577.2032, 369.0752
577.6853, 345.4512
578.1674, 326.4316
578.6495, 313.6021
579.1317, 301.5732
579.6138, 288.2012
580.0959, 273.7778
580.5780, 259.8145
581.0601, 246.1304
581.5422, 233.6406
582.0244, 223.0649
582.5065, 214.2437
582.9886, 207.3799
583.4707, 202.7759
583.9528, 198.1069
584.4349, 190.1406
584.9171, 181.0054
585.3992, 173.8838
585.8813, 172.4521
586.3634, 170.4160
586.8455, 163.8154
587.3276, 154.4404
587.8098, 147.4458
588.2919, 146.6470
588.7740, 145.3721
589.2561, 141.2642
589.7382, 134.2324
590.2203, 128.2656
590.7025, 123.0122
591.1846, 119.5015
591.6667, 119.4443
592.1488, 123.3047
592.6309, 123.9043
593.1130, 120.7427
593.5952, 115.4990
594.0773, 108.9707
594.5594, 101.8608
595.0415, 97.19238
595.5236, 96.72266
596.0057, 97.12939
596.4879, 94.48975
596.9700, 89.85156
597.4521, 85.62793
597.9342, 83.82861
598.4163, 81.95264
598.8984, 78.47803
599.3806, 73.57031
599.8627, 68.67725
600.3448, 65.12012
600.8269, 60.89160
601.3090, 53.94434
601.7911, 41.84814
602.2733, 36.43799
602.7554, 41.09619
603.2375, 47.77393
603.7196, 48.33057
604.2017, 42.08154
604.6838, 37.39941
605.1660, 35.15088
605.6481, 34.72266
606.1302, 36.16797
606.6123, 38.96533
607.0944, 40.57910
607.5765, 38.49414
608.0587, 36.43115
608.5408, 40.85742
609.0229, 49.65674
609.5050, 55.17041
609.9871, 48.73730
610.4692, 40.54248
610.9514, 37.48193
611.4335, 40.21680
611.9156, 43.08936
612.3977, 44.48340
612.8798, 45.87598
613.3619, 48.33057
613.8441, 52.94434
614.3262, 56.29736
614.8083, 57.13428
615.2904, 57.45117
615.7725, 61.09131
616.2546, 68.43896
616.7368, 72.64160
617.2189, 71.36768
617.7010, 68.55469
618.1831, 72.14014
618.6652, 80.38184
619.1473, 87.38965
619.6295, 86.82861
620.1116, 86.38037
620.5937, 95.45654
621.0758, 112.0454
621.5579, 126.3496
622.0400, 130.4805
622.5222, 132.1826
623.0043, 137.2793
623.4864, 147.5132
623.9685, 153.6318
624.4506, 152.2402
624.9327, 148.5508
625.4149, 145.6172
625.8970, 143.3340
626.3791, 143.1187
626.8612, 145.2949
627.3433, 148.1221
627.8254, 149.5542
628.3076, 149.6245
628.7897, 148.6250
629.2718, 146.7368
629.7539, 142.7202
630.2360, 132.0132
630.7181, 117.0864
631.2003, 105.8882
631.6824, 104.7339
632.1645, 107.0679
632.6466, 107.7241
633.1287, 107.1504
633.6108, 108.7490
634.0930, 115.8423
634.5751, 123.6523
635.0572, 129.6250
635.5393, 133.2749
636.0214, 137.2954
636.5035, 142.1797
636.9857, 146.9097
637.4678, 150.3022
637.9499, 152.0439
638.4320, 155.3892
638.9141, 160.5396
639.3962, 167.1123
639.8784, 175.6367
640.3605, 185.3696
640.8426, 193.4907
641.3247, 199.0420
641.8068, 203.0635
642.2889, 206.8901
642.7711, 209.6948
643.2532, 209.9858
643.7353, 206.5000
644.2174, 200.9243
644.6995, 194.1055
645.1816, 185.9531
645.6638, 175.7197
646.1459, 161.1455
646.6280, 146.4644
647.1101, 132.4741
647.5922, 119.1597
648.0743, 108.6499
648.5565, 102.0586
649.0386, 95.38330
649.5207, 84.32080
650.0028, 69.70801
650.4849, 59.87744
650.9670, 55.91846
651.4492, 53.44092
651.9313, 47.19385
652.4134, 39.22803
652.8955, 33.80566
653.3776, 33.08984
653.8597, 32.64111
654.3419, 29.67334
654.8240, 24.93848
655.3061, 19.57568
655.7882, 12.40918
656.2703, 6.478516
656.7524, 3.107422
657.2346, 1.562012
657.7167, 0.5107420
658.1988, 3.689453
658.6809, 5.902344
659.1630, 6.170898
659.6451, 4.879883
660.1273, 4.193848
660.6094, 4.152344
661.0915, 4.433105
661.5736, 5.457031
662.0557, 6.552734
662.5378, 6.216309
663.0200, 4.421875
663.5021, 2.206055
663.9842, 0.1640630
664.4663, 2.313477
664.9484, 4.014648
665.4305, 5.598633
665.9127, 5.738770
666.3948, 1.359863
666.8769, 3.049316
667.3590, 2.568359
667.8411, 7.332520
668.3232, 12.37646
668.8054, 9.676270
669.2875, 3.684082
669.7696, 3.016602
670.2517, 7.806641
670.7338, 9.767578
671.2159, 4.742188
671.6981, 2.261230
672.1802, 1.133789
672.6623, 5.924316
673.1444, 11.17969
673.6265, 8.960938
674.1086, 4.617676
674.5908, 1.270020
675.0729, 0.8989260
675.5550, 1.663086
676.0371, 1.968262
676.5192, 4.454102
677.0013, 2.703613
677.4835, 3.815918
677.9656, 8.632324
678.4477, 12.77051
678.9298, 13.38086
679.4119, 6.685059
679.8940, 7.484375
680.3762, 17.18945
680.8583, 22.08545
681.3404, 22.95947
681.8225, 18.71240
682.3046, 11.38623
682.7867, 4.776855
683.2689, 0.7939450
683.7510, 3.797363
684.2331, 0.3217770
684.7152, 5.488281
685.1973, 8.245605
685.6794, 1.953613
686.1616, 1.908691
686.6437, 0.5668950
687.1258, 6.292480
687.6079, 9.925293
688.0900, 11.16748
688.5721, 10.74023
689.0543, 8.024414
689.5364, 4.187500
690.0185, 2.250000
690.5006, 2.212402
690.9827, 4.603516
691.4648, 13.81348
691.9470, 23.47559
692.4291, 21.79346
692.9112, 10.67090
693.3933, 0.7548830
693.8754, 2.443359
694.3575, 2.208496
694.8397, 0.5854490
695.3218, 6.225098
695.8039, 9.330078
696.2860, 7.297852
696.7681, 4.564453
697.2502, 3.581055
697.7324, 5.114746
698.2145, 4.405273
698.6966, 0.5996090
699.1787, 2.956055
699.6608, 1.932617
700.1429, 2.489258
700.6251, 4.360840
701.1072, 2.600098
701.5893, 0.2495120
702.0714, 3.074219
702.5535, 5.001953
703.0356, 4.518555
703.5178, 0.2734380
703.9999, 4.810547
704.4820, 7.035156
704.9641, 7.959961
705.4462, 9.248535
705.9283, 11.66992
706.4105, 13.45117
706.8926, 14.49170
707.3747, 14.73389
707.8568, 13.75391
708.3389, 11.46436
708.8210, 9.634766
709.3032, 9.447266
709.7853, 9.585938
710.2674, 6.265625
710.7495, 0.4892580
711.2316, 3.257813
711.7137, 0.9672850
712.1959, 3.038574
712.6780, 6.040039
713.1601, 8.002441
713.6422, 9.349121
714.1243, 9.711426
714.6064, 9.885742
715.0886, 10.29004
715.5707, 10.90137
716.0528, 11.06104
716.5349, 10.97363
717.0170, 10.31738
717.4991, 8.133789
717.9813, 4.852051
718.4634, 4.741211
718.9455, 8.019043
719.4276, 11.44922
719.9097, 11.51416
720.3918, 10.51855
720.8740, 12.39209
721.3561, 18.58447
721.8382, 21.94141
722.3203, 15.54688
722.8024, 6.690918
723.2845, 1.867188
723.7667, 4.314941
724.2488, 5.759766
724.7309, 5.327637
725.2130, 4.859863
725.6951, 6.984863
726.1772, 11.56592
726.6594, 14.63379
727.1415, 15.14795
727.6236, 14.93164
728.1057, 18.31055
728.5878, 22.99316
729.0699, 22.72559
729.5521, 11.59766
730.0342, 0.8286130
730.5163, 1.986816
730.9984, 0.5703130
731.4805, 4.347656
731.9626, 12.26367
732.4448, 16.32568
732.9269, 13.15430
733.4090, 5.837402
733.8911, 3.372070
734.3732, 7.096680
734.8553, 9.285645
735.3375, 6.176270
735.8196, 0.5937500
736.3017, 8.7890998E-02
736.7838, 3.791016
737.2659, 9.310059
737.7480, 17.62256
738.2302, 24.22461
738.7123, 24.40869
739.1944, 19.22021
739.6765, 14.03174
740.1586, 9.464355
740.6407, 6.554688
741.1229, 6.160645
741.6050, 8.125977
742.0871, 9.992188
742.5692, 11.94629
743.0513, 13.08838
743.5334, 12.00342
744.0156, 9.180176
744.4977, 11.46484
744.9798, 18.81982
745.4619, 25.13525
745.9440, 23.83838
746.4261, 19.71240
746.9083, 19.31592
747.3904, 23.27783
747.8725, 26.16357
748.3546, 23.61572
748.8367, 20.32715
749.3188, 19.51221
749.8010, 21.97754
750.2831, 24.56299
750.7652, 27.87891
751.2473, 30.21631
751.7294, 29.76709
752.2115, 26.74561
752.6937, 24.48193
753.1758, 23.21045
753.6579, 21.62793
754.1400, 17.68945
754.6221, 12.87012
755.1042, 9.223145
755.5864, 6.895996
756.0685, 7.208496
756.5506, 14.61768
757.0327, 23.06299
757.5148, 26.56689
757.9969, 20.25635
758.4791, 15.49023
758.9612, 12.40234
759.4433, 10.62061
759.9254, 10.01807
760.4075, 10.66406
760.8896, 10.54590
761.3718, 9.030273
761.8539, 8.035156
762.3360, 11.88525
762.8181, 18.11719
763.3002, 21.19775
763.7823, 17.06201
764.2645, 13.97900
764.7466, 20.06543
765.2287, 29.03467
765.7108, 31.48633
766.1929, 20.29248
766.6750, 10.22559
767.1572, 1.377930
767.6393, 4.797363
768.1214, 4.034668
768.6035, 4.333984
769.0856, 9.550293
769.5677, 8.223633
770.0499, 4.393555
770.5320, 4.216309
771.0141, 6.578613
771.4962, 8.674316
771.9783, 8.643555
772.4604, 8.662598
772.9426, 11.23242
773.4247, 14.57275
773.9068, 14.33008
774.3889, 5.524902
774.8710, 0.2612300
775.3531, 0.3471680
775.8353, 4.645996
776.3174, 4.260254
776.7995, 1.040527
777.2816, 5.391113
777.7637, 7.080078
778.2458, 6.013184
778.7280, 1.007813
779.2101, 11.44824
779.6922, 17.01074
780.1743, 7.843262
780.6564, 1.375488
781.1385, 2.322754
781.6207, 3.289551
782.1028, 7.345703
782.5849, 8.204590
783.0670, 9.141602
783.5491, 11.15820
784.0313, 13.77686
784.5134, 14.99658
784.9955, 14.75928
785.4776, 14.80078
785.9597, 16.33398
786.4418, 18.31396
786.9240, 19.34277
787.4061, 19.41455
787.8882, 18.48682
788.3703, 15.16748
788.8524, 12.16406
789.3345, 10.97119
789.8167, 11.44482
790.2988, 11.70410
790.7809, 11.05908
791.2630, 11.70703
791.7451, 15.47803
792.2272, 20.99902
792.7094, 21.46436
793.1915, 17.09375
793.6736, 13.17920
794.1557, 13.03613
794.6378, 14.88037
795.1199, 16.77783
795.6021, 18.68066
796.0842, 20.66553
796.5663, 23.73242
797.0484, 25.89355
797.5305, 26.01660
798.0126, 24.26807
798.4948, 21.64697
798.9769, 17.01807
799.4590, 14.52588
799.9411, 16.90527
800.4232, 22.58154
800.9053, 24.85840
801.3875, 24.09863
801.8696, 23.69678
802.3517, 27.80811
802.8338, 31.76562
803.3159, 29.04199
803.7980, 21.07715
804.2802, 16.82080
804.7623, 22.78857
805.2444, 29.10791
805.7265, 32.21924
806.2086, 32.38574
806.6907, 31.76807
807.1729, 29.66553
807.6550, 29.66113
808.1371, 35.69873
808.6192, 44.08838
809.1013, 43.68945
809.5834, 35.89746
810.0656, 28.60352
810.5477, 25.82422
811.0298, 25.82617
811.5119, 28.20752
811.9940, 32.67920
812.4761, 37.22852
812.9583, 42.66846
813.4404, 46.90967
813.9225, 49.39111
814.4046, 50.19971
814.8867, 48.85107
815.3688, 45.14795
815.8510, 43.55566
816.3331, 48.11719
816.8152, 55.15869
817.2973, 57.66455
817.7794, 56.85938
818.2615, 57.75000
818.7437, 63.33887
819.2258, 70.55469
819.7079, 79.29492
820.1900, 88.86133
820.6721, 94.99658
821.1542, 96.34473
821.6364, 97.10107
822.1185, 98.11230
822.6006, 99.79248
823.0827, 104.0415
823.5648, 110.6172
824.0469, 117.6094
824.5291, 126.0151
825.0112, 132.9282
825.4933, 135.1992
825.9754, 133.7544
826.4575, 131.2993
826.9396, 126.4634
827.4218, 123.3096
827.9039, 122.7329
828.3860, 124.5938
828.8681, 128.3555
829.3502, 133.9800
829.8323, 142.3760
830.3145, 155.7686
830.7966, 169.7524
831.2787, 175.1357
831.7608, 173.8413
832.2429, 171.7295
832.7250, 170.1807
833.2072, 169.8599
833.6893, 171.9604
834.1714, 175.5488
834.6535, 177.9990
835.1356, 177.4009
835.6177, 179.0566
836.0999, 185.2646
836.5820, 193.2061
837.0641, 196.0962
837.5462, 194.2798
838.0283, 191.2959
838.5104, 187.0972
838.9926, 184.3052
839.4747, 187.8560
839.9568, 194.4487
840.4389, 198.5337
840.9210, 193.8525
841.4031, 191.0195
841.8853, 194.9673
842.3674, 200.8950
842.8495, 201.1309
843.3316, 193.7935
843.8137, 190.5386
844.2958, 194.2207
844.7780, 199.9224
845.2601, 201.0000
845.7422, 198.2993
846.2243, 193.5649
846.7064, 186.1670
847.1885, 180.0171
847.6707, 178.3999
848.1528, 178.6221
848.6349, 177.5415
849.1170, 172.7378
849.5991, 171.6064
850.0812, 175.5933
850.5634, 180.0830
851.0455, 181.4277
851.5276, 179.9785
852.0097, 175.3237
852.4918, 166.9917
852.9739, 159.6177
853.4561, 157.4619
853.9382, 157.5952
854.4203, 156.9438
854.9024, 154.4004
855.3845, 154.8267
855.8666, 163.3354
856.3488, 171.0161
856.8309, 170.8896
857.3130, 161.1538
857.7951, 154.5703
858.2772, 151.1797
858.7593, 151.1968
859.2415, 158.3198
859.7236, 167.7725
860.2057, 170.6104
860.6878, 166.1885
861.1699, 161.8696
861.6520, 161.7900
862.1342, 161.2554
862.6163, 156.9150
863.0984, 149.4414
863.5805, 146.6548
864.0626, 149.7744
864.5447, 152.2319
865.0269, 150.4116
865.5090, 145.4360
865.9911, 140.9961
866.4732, 137.0923
866.9553, 132.2705
867.4374, 121.1021
867.9196, 112.6079
868.4017, 115.3779
868.8838, 127.7539
869.3659, 136.7275
869.8480, 139.8364
870.3301, 140.7856
870.8123, 139.7983
871.2944, 137.7466
871.7765, 138.2222
872.2586, 140.6851
872.7407, 141.5264
873.2228, 138.9204
873.7050, 134.3086
874.1871, 127.3809
874.6692, 119.7388
875.1513, 114.7852
875.6334, 116.1284
876.1155, 117.4253
876.5977, 118.2139
877.0798, 118.0161
877.5619, 115.7378
878.0440, 111.3228
878.5261, 105.7896
879.0082, 98.47412
879.4904, 92.47461
879.9725, 94.32129
880.4546, 99.57422
880.9367, 100.0068
881.4188, 90.69629
881.9009, 82.20947
882.3831, 79.07471
882.8652, 77.96777
883.3473, 75.60059
883.8294, 71.63086
884.3115, 67.64160
884.7936, 63.60254
885.2758, 60.06689
885.7579, 57.81348
886.2400, 56.50830
886.7221, 55.34814
887.2042, 54.26416
887.6863, 53.46484
888.1685, 53.53809
888.6506, 53.55957
889.1327, 52.64062
889.6148, 50.50049
890.0969, 48.89697
890.5790, 47.49707
891.0612, 47.17090
891.5433, 49.87646
892.0254, 53.87207
892.5075, 51.39258
892.9896, 43.22168
893.4717, 36.25000
893.9539, 35.81738
894.4360, 36.93701
894.9181, 36.97217
895.4002, 35.77295
895.8823, 33.15332
896.3644, 29.08691
896.8466, 23.74805
897.3287, 15.95361
897.8108, 8.074707
898.2929, 7.494629
898.7750, 13.14893
899.2571, 17.80225
899.7393, 18.51465
900.2214, 17.52881
900.7035, 15.86230
901.1856, 13.93018
901.6677, 12.43701
902.1498, 11.34570
902.6320, 10.96484
903.1141, 11.96777
903.5962, 12.71631
904.0783, 10.32422
904.5604, 5.067871
905.0425, 1.530762
905.5247, 0.5839840
906.0068, 6.5430000E-02
906.4889, 3.763672
906.9710, 7.334961
907.4531, 5.542969
907.9352, 5.178711
908.4174, 10.86279
908.8995, 7.602051
909.3816, 1.384766
909.8637, 5.455566
910.3458, 12.97998
910.8279, 14.12891
911.3101, 8.786621
911.7922, 4.051758
912.2743, 5.986816
912.7564, 10.71289
913.2385, 14.86182
913.7206, 18.13818
914.2028, 19.69434
914.6849, 17.59912
915.1670, 15.60156
915.6491, 14.45410
916.1312, 14.24756
916.6133, 15.64209
917.0955, 18.62061
917.5776, 22.10742
918.0597, 27.09570
918.5418, 30.21826
919.0239, 24.05615
919.5060, 13.43848
919.9882, 7.828613
920.4703, 17.25098
920.9524, 22.78906
921.4345, 19.73584
921.9166, 12.96924
922.3987, 7.867676
922.8809, 4.478027
923.3630, 3.271973
923.8451, 4.540039
924.3272, 6.814941
924.8093, 9.310059
925.2914, 11.47705
925.7736, 12.82080
926.2557, 13.45605
926.7378, 11.77344
927.2199, 2.948730
927.7020, 4.207520
928.1841, 4.285156
928.6663, 2.663574
929.1484, 5.927246
929.6305, 5.430664
930.1126, 2.916992
930.5947, 2.493652
931.0768, 8.016113
931.5590, 8.585449
932.0411, 5.678223
932.5232, 5.437988
933.0053, 14.17920
933.4874, 20.51514
933.9695, 19.83252
934.4517, 15.79736
934.9338, 18.85303
935.4159, 29.20215
935.8980, 35.07959
936.3801, 31.59131
936.8622, 26.83984
937.3444, 31.69629
937.8265, 41.15576
938.3086, 47.49268
938.7907, 44.63721
939.2728, 46.64502
939.7549, 58.32031
940.2371, 72.83350
940.7192, 85.35889
941.2013, 95.76660
941.6834, 104.5669
942.1655, 111.6094
942.6476, 118.9438
943.1298, 127.7158
943.6119, 137.8867
944.0940, 150.0083
944.5761, 164.0864
945.0582, 177.7090
945.5403, 189.8013
946.0225, 201.8779
946.5046, 213.3813
946.9867, 225.4375
947.4688, 245.1626
947.9509, 271.6782
948.4330, 294.7637
948.9152, 306.2749
949.3973, 317.7153
949.8794, 342.2266
950.3615, 374.0767
950.8436, 403.2305
951.3257, 418.4668
951.8079, 443.7451
952.2900, 483.8423
952.7721, 529.5317
953.2542, 568.8193
953.7363, 603.0288
954.2184, 642.6235
954.7006, 689.2529
955.1827, 737.6582
955.6648, 783.0767
956.1469, 829.5098
956.6290, 879.2505
957.1111, 932.5942
957.5933, 992.0923
958.0754, 1058.148
958.5575, 1129.599
959.0396, 1205.808
959.5217, 1286.191
960.0038, 1369.859
960.4860, 1457.067
960.9681, 1549.462
961.4502, 1649.189
961.9323, 1751.964
962.4144, 1853.900
962.8965, 1956.639
963.3787, 2061.984
963.8608, 2173.637
964.3429, 2279.649
964.8250, 2378.096
965.3071, 2474.140
965.7892, 2574.941
966.2714, 2677.301
966.7535, 2776.658
967.2356, 2871.578
967.7177, 2959.823
968.1998, 3037.033
968.6819, 3108.709
969.1641, 3178.452
969.6462, 3247.600
970.1283, 3308.963
970.6104, 3363.384
971.0925, 3408.817
971.5746, 3444.704
972.0568, 3471.249
972.5389, 3490.159
973.0210, 3500.638
973.5031, 3499.391
973.9852, 3483.152
974.4673, 3456.762
974.9495, 3421.999
975.4316, 3378.054
975.9137, 3324.422
976.3958, 3261.823
976.8779, 3184.007
977.3600, 3088.638
977.8422, 2985.171
978.3243, 2882.903
978.8064, 2776.850
979.2885, 2661.316
979.7706, 2533.679
980.2527, 2405.436
980.7349, 2275.593
981.2170, 2148.476
981.6991, 2029.512
982.1812, 1917.001
982.6633, 1800.652
983.1454, 1681.218
983.6276, 1567.802
984.1097, 1465.940
984.5918, 1371.666
985.0739, 1284.612
985.5560, 1203.178
986.0381, 1125.487
986.5203, 1049.980
987.0024, 980.1421
987.4845, 917.4023
987.9666, 859.2129
988.4487, 800.5000
988.9308, 743.4712
989.4130, 693.6895
989.8951, 652.6626
990.3772, 615.0859
990.8593, 579.3364
991.3414, 544.8003
991.8235, 509.3477
992.3057, 472.1631
992.7878, 447.7168
993.2699, 437.7778
993.7520, 427.8101
994.2341, 406.3325
994.7162, 382.5913
995.1984, 374.5107
995.6805, 377.5576
996.1626, 379.6089
996.6447, 371.6763
997.1268, 368.1074
997.6089, 374.3984
998.0911, 384.3794
998.5732, 388.4243
999.0553, 386.6362
999.5374, 389.3706
1000.020, 398.0127
1000.502, 409.5464
1000.984, 423.0107
1001.466, 436.6167
1001.948, 447.6636
1002.430, 455.2910
1002.912, 467.2095
1003.394, 485.3442
1003.876, 504.6484
1004.359, 523.3315
1004.841, 541.5708
1005.323, 558.5942
1005.805, 575.0977
1006.287, 593.1143
1006.769, 614.2026
1007.251, 636.6821
1007.733, 659.1816
1008.216, 682.7837
1008.698, 708.2202
1009.180, 735.6914
1009.662, 765.5981
1010.144, 798.4185
1010.626, 830.9580
1011.108, 856.9434
1011.590, 881.2739
1012.072, 913.0601
1012.555, 952.4722
1013.037, 987.2837
1013.519, 1013.426
1014.001, 1033.310
1014.483, 1046.167
1014.965, 1054.266
1015.447, 1066.428
1015.929, 1081.995
1016.411, 1092.817
1016.894, 1094.591
1017.376, 1094.694
1017.858, 1100.763
1018.340, 1108.361
1018.822, 1111.801
1019.304, 1109.090
1019.786, 1105.858
1020.268, 1102.751
1020.751, 1097.793
1021.233, 1089.592
1021.715, 1078.469
1022.197, 1065.720
1022.679, 1051.114
1023.161, 1032.457
1023.643, 1002.959
1024.125, 975.2930
1024.607, 953.7334
1025.090, 937.6401
1025.572, 926.9155
1026.054, 921.6724
1026.536, 916.5615
1027.018, 910.6504
1027.500, 903.4590
1027.982, 893.5317
1028.464, 882.7578
1028.947, 873.6655
1029.429, 866.9814
1029.911, 858.7783
1030.393, 846.9810
1030.875, 837.0132
1031.357, 834.1069
1031.839, 834.5654
1032.321, 823.7959
1032.803, 804.0552
1033.286, 784.2329
1033.768, 771.8623
1034.250, 758.0229
1034.732, 738.8457
1035.214, 715.6763
1035.696, 689.5044
1036.178, 657.6621
1036.660, 636.6494
1037.143, 628.5674
1037.625, 622.8550
1038.107, 608.1719
1038.589, 589.6743
1039.071, 573.5767
1039.553, 560.9585
1040.035, 549.3916
1040.517, 537.8477
1041.000, 528.0176
1041.482, 520.5234
1041.964, 515.5630
1042.446, 513.7568
1042.928, 514.4761
1043.410, 515.9258
1043.892, 518.9165
1044.374, 521.5430
1044.856, 522.7583
1045.339, 523.2505
1045.821, 523.5010
1046.303, 523.1816
1046.785, 520.9478
1047.267, 516.9678
1047.749, 513.8452
1048.231, 515.5557
1048.713, 517.4604
1049.195, 512.3682
1049.677, 502.3779
1050.160, 493.8315
1050.642, 492.9688
1051.124, 486.9023
1051.606, 473.0352
1052.088, 455.1792
1052.570, 439.2285
1053.052, 423.8125
1053.534, 403.5288
1054.017, 377.5679
1054.499, 352.1318
1054.981, 331.5576
1055.463, 312.2578
1055.945, 293.0127
1056.427, 273.3945
1056.909, 249.7734
1057.391, 221.3862
1057.874, 198.9009
1058.356, 188.0117
1058.838, 180.3711
1059.320, 165.3208
1059.802, 147.2300
1060.284, 131.8979
1060.766, 121.7300
1061.248, 112.0098
1061.730, 102.7202
1062.213, 93.50830
1062.695, 82.45459
1063.177, 71.35596
1063.659, 67.91553
1064.141, 70.70166
1064.623, 73.23096
1065.105, 72.92383
1065.587, 70.75879
1066.070, 65.22852
1066.552, 58.87012
1067.034, 55.90820
1067.516, 56.46191
1067.998, 55.67627
1068.480, 52.85156
1068.962, 50.25244
1069.444, 51.83203
1069.927, 53.25977
1070.409, 50.10400
1070.891, 42.10156
1071.373, 34.29834
1071.855, 26.67334
1072.337, 19.80957
1072.819, 13.53662
1073.301, 8.629883
1073.783, 7.352539
1074.266, 8.203125
1074.748, 7.880859
1075.230, 4.947266
1075.712, 2.400391
1076.194, 1.628418
1076.676, 0.6752930
1077.158, 2.572266
1077.640, 7.508789
1078.122, 6.364746
1078.604, 3.7597999E-02
1079.087, 3.932129
1079.569, 0.9716800
1080.051, 7.163086
1080.533, 10.61328
1081.015, 12.14941
1081.497, 13.43262
1081.979, 14.25195
1082.461, 16.40381
1082.944, 20.44971
1083.426, 22.89453
1083.908, 18.12598
1084.390, 11.23096
1084.872, 7.932617
1085.354, 8.482910
1085.836, 11.21338
1086.318, 18.43896
1086.801, 22.68311
1087.283, 21.54688
1087.765, 17.50439
1088.247, 14.19238
1088.729, 11.76367
1089.211, 11.31934
1089.693, 13.90381
1090.175, 14.18408
1090.657, 5.888184
1091.140, 1.290039
1091.622, 1.559082
1092.104, 4.156738
1092.586, 8.670898
1093.068, 11.93555
1093.550, 13.50732
1094.032, 12.20117
1094.514, 10.90918
1094.997, 14.46191
1095.479, 17.89990
1095.961, 13.52100
1096.443, 3.763184
1096.925, 10.47852
1097.407, 5.157227
1097.889, 1.580566
1098.371, 3.7108999E-02
1098.854, 3.917480
1099.336, 0.9985350
1099.818, 6.462402
1100.300, 8.541504
1100.782, 2.779785
1101.264, 9.312988
1101.746, 7.896973
1102.228, 2.861816
1102.710, 2.470703
1103.193, 6.274902
1103.675, 2.822266
1104.157, 8.640137
1104.639, 18.88379
1105.121, 24.04980
1105.603, 26.54541
1106.085, 26.78516
1106.567, 25.68115
1107.049, 25.96631
1107.531, 27.49512
1108.014, 29.11084
1108.496, 30.50244
1108.978, 31.37061
1109.460, 28.70361
1109.942, 27.49756
1110.424, 33.89062
1110.906, 48.41650
1111.388, 53.33252
1111.871, 47.95996
1112.353, 43.40234
1112.835, 46.01758
1113.317, 50.86035
1113.799, 52.48486
1114.281, 52.66797
1114.763, 54.43555
1115.245, 59.78857
1115.728, 63.84717
1116.210, 66.67627
1116.692, 68.24170
1117.174, 66.57715
1117.656, 64.57812
1118.138, 67.88037
1118.620, 75.72559
1119.102, 84.49268
1119.584, 96.20166
1120.067, 103.3789
1120.549, 102.5884
1121.031, 100.2632
1121.513, 107.0420
1121.995, 119.5078
1122.477, 124.9336
1122.959, 122.3091
1123.441, 120.2217
1123.924, 122.8218
1124.406, 127.5239
1124.888, 133.6519
1125.370, 140.6870
1125.852, 147.8267
1126.334, 154.9473
1126.816, 159.8838
1127.298, 162.2397
1127.781, 162.2764
1128.263, 157.6909
1128.745, 152.9121
1129.227, 151.9316
1129.709, 154.5938
1130.191, 157.1089
1130.673, 159.5166
1131.155, 161.2334
1131.637, 161.4976
1132.120, 161.8765
1132.602, 165.3438
1133.084, 169.3232
1133.566, 169.8604
1134.048, 165.1968
1134.530, 161.6455
1135.012, 159.5659
1135.494, 156.6230
1135.976, 149.4351
1136.458, 142.0400
1136.941, 143.2666
1137.423, 149.1528
1137.905, 149.9478
1138.387, 139.1831
1138.869, 128.4736
1139.351, 117.7944
1139.833, 108.7227
1140.315, 102.7236
1140.798, 99.41211
1141.280, 100.5298
1141.762, 105.1611
1142.244, 105.3950
1142.726, 90.83447
1143.208, 80.44678
1143.690, 80.48779
1144.172, 83.47070
1144.655, 77.57373
1145.137, 65.43066
1145.619, 56.29590
1146.101, 51.36035
1146.583, 46.87109
1147.065, 40.13232
1147.547, 33.71973
1148.029, 28.70508
1148.511, 25.71484
1148.994, 25.93115
1149.476, 28.49170
1149.958, 28.07617
1150.440, 22.70361
1150.922, 18.92627
1151.404, 23.19238
1151.886, 29.67578
1152.368, 34.26807
1152.851, 36.56543
1153.333, 36.68018
1153.815, 35.03027
1154.297, 32.37305
1154.779, 26.32471
1155.261, 21.42480
1155.743, 24.22266
1156.225, 29.54053
1156.708, 30.27930
1157.190, 24.74951
1157.672, 23.00830
1158.154, 26.02051
1158.636, 28.72559
1159.118, 27.43604
1159.600, 23.56787
1160.082, 17.53564
1160.564, 10.47510
1161.047, 4.552246
1161.529, 0.2060550
1162.011, 0.6372070
1162.493, 3.788086
1162.975, 8.416992
1163.457, 9.839355
1163.939, 9.354980
1164.421, 7.442871
1164.903, 5.094238
1165.385, 5.324707
1165.868, 10.94238
1166.350, 14.81348
1166.832, 15.90430
1167.314, 16.25635
1167.796, 19.23389
1168.278, 22.31982
1168.760, 19.23096
1169.242, 11.06934
1169.725, 7.059082
1170.207, 12.75391
1170.689, 18.91016
1171.171, 25.11328
1171.653, 29.74512
1172.135, 28.53320
1172.617, 23.99512
1173.099, 23.05029
1173.582, 26.33789
1174.064, 28.05615
1174.546, 22.79834
1175.028, 18.56104
1175.510, 17.54785
1175.992, 19.39844
1176.474, 25.58447
1176.956, 33.54492
1177.438, 34.89258
1177.921, 27.31152
1178.403, 20.06836
1178.885, 15.58984
1179.367, 14.14062
1179.849, 16.76074
1180.331, 21.84131
1180.813, 24.53174
1181.295, 25.23096
1181.778, 25.17139
1182.260, 24.10352
1182.742, 24.54199
1183.224, 31.47412
1183.706, 36.05566
1184.188, 31.63330
1184.670, 20.85156
1185.152, 19.70459
1185.635, 26.32666
1186.117, 31.46289
1186.599, 31.09717
1187.081, 29.57227
1187.563, 28.63428
1188.045, 27.60449
1188.527, 25.43066
1189.009, 22.43848
1189.491, 22.94824
1189.974, 26.59473
1190.456, 30.68018
1190.938, 34.95264
1191.420, 37.89209
1191.902, 38.66797
1192.384, 37.73682
1192.866, 34.55225
1193.348, 28.96924
1193.830, 30.07031
1194.313, 37.20557
1194.795, 42.43115
1195.277, 40.65674
1195.759, 36.02393
1196.241, 27.71680
1196.723, 19.69824
1197.205, 18.09570
1197.687, 23.20947
1198.169, 23.22412
1198.652, 17.85400
1199.134, 12.70361
1199.616, 10.86914
1200.098, 11.24756
1200.580, 14.75635
1201.062, 19.45410
1201.544, 22.23047
1202.026, 23.06201
1202.509, 23.12939
1202.991, 22.50342
1203.473, 23.02197
1203.955, 28.80273
1204.437, 33.32471
1204.919, 30.23242
1205.401, 23.27588
1205.883, 20.78857
1206.365, 22.76221
1206.848, 26.15088
1207.330, 30.72803
1207.812, 33.31104
1208.294, 29.60547
1208.776, 24.70557
1209.258, 21.48584
1209.740, 20.15869
1210.222, 22.85156
1210.705, 29.70801
1211.187, 31.36865
1211.669, 25.82422
1212.151, 19.08154
1212.633, 13.83838
1213.115, 11.07471
1213.597, 13.78760
1214.079, 19.67627
1214.562, 19.21143
1215.044, 12.66797
1215.526, 9.593750
1216.008, 12.80518
1216.490, 16.07764
1216.972, 13.22217
1217.454, 9.527832
1217.936, 9.058594
1218.418, 11.16162
1218.901, 13.20801
1219.383, 15.06689
1219.865, 17.02588
1220.347, 19.55859
1220.829, 21.36768
1221.311, 21.73486
1221.793, 20.51953
1222.275, 16.81494
1222.757, 11.33691
1223.240, 9.997070
1223.722, 12.55322
1224.204, 13.54004
1224.686, 10.43799
1225.168, 7.594238
1225.650, 10.34717
1226.132, 12.31885
1226.614, 7.599121
1227.096, 2.592285
1227.579, 6.674805
1228.061, 5.077148
1228.543, 3.147461
1229.025, 3.685547
1229.507, 2.708496
1229.989, 6.781250
1230.471, 14.17920
1230.953, 9.336914
1231.436, 5.638672
1231.918, 9.086914
1232.400, 2.583496
1232.882, 3.358398
1233.364, 3.971191
1233.846, 3.930176
1234.328, 5.812500
1234.810, 7.615723
1235.292, 7.356934
1235.775, 5.603027
1236.257, 8.208984
1236.739, 13.93457
1237.221, 16.00781
1237.703, 7.671387
1238.185, 1.463867
1238.667, 3.844727
1239.149, 8.474121
1239.632, 11.41748
1240.114, 12.79492
1240.596, 13.92627
1241.078, 14.47021
1241.560, 12.96533
1242.042, 3.603516
1242.524, 2.5390999E-02
1243.006, 8.851074
1243.489, 19.77148
1243.971, 24.51904
1244.453, 24.65820
1244.935, 27.05859
1245.417, 30.70117
1245.899, 31.62402
1246.381, 23.83740
1246.863, 19.83887
1247.345, 22.55811
1247.828, 27.00586
1248.310, 28.98975
1248.792, 29.45068
1249.274, 31.51611
1249.756, 34.39404
1250.238, 35.23584
1250.720, 29.30811
1251.202, 27.54834
1251.684, 32.31836
1252.167, 37.56055
1252.649, 37.10400
1253.131, 33.85693
1253.613, 33.13672
1254.095, 34.59277
1254.577, 36.88965
1255.059, 41.81592
1255.541, 42.82275
1256.023, 38.43994
1256.506, 33.87646
1256.988, 34.85010
1257.470, 37.67676
1257.952, 37.67236
1258.434, 35.15869
1258.916, 30.94580
1259.398, 23.32715
1259.880, 20.23828
1260.363, 22.77344
1260.845, 26.26904
1261.327, 27.68457
1261.809, 27.32764
1262.291, 23.86133
1262.773, 19.15283
1263.255, 18.32324
1263.737, 22.76123
1264.219, 24.62939
1264.702, 22.94922
1265.184, 19.10889
1265.666, 15.82227
1266.148, 12.76270
1266.630, 7.834961
1267.112, 1.517578
1267.594, 2.901367
1268.076, 11.90088
1268.559, 12.83691
1269.041, 4.810547
1269.523, 2.385742
1270.005, 0.4882810
1270.487, 2.443848
1270.969, 0.3432620
1271.451, 2.644531
1271.933, 0.3559570
1272.416, 8.563477
1272.898, 12.73145
1273.380, 12.42139
1273.862, 10.93311
1274.344, 9.576172
1274.826, 7.982422
1275.308, 5.258301
1275.790, 3.088379
1276.272, 4.491211
1276.755, 8.253418
1277.237, 9.751953
1277.719, 8.922852
1278.201, 7.374023
1278.683, 4.536133
1279.165, 2.947266
1279.647, 3.022949
1280.129, 4.456543
1280.611, 7.274414
1281.094, 11.02979
1281.576, 16.60059
1282.058, 22.71924
1282.540, 22.92480
1283.022, 9.736816
1283.504, 1.641602
1283.986, 0.9594730
1284.468, 3.939941
1284.950, 8.039551
1285.433, 12.76807
1285.915, 19.04639
1286.397, 25.65283
1286.879, 25.62695
1287.361, 16.21973
1287.843, 12.49170
1288.325, 16.25586
1288.807, 22.12061
1289.290, 27.41455
1289.772, 31.00928
1290.254, 32.30420
1290.736, 30.79590
1291.218, 24.99805
1291.700, 14.20264
1292.182, 8.953125
1292.664, 9.905762
1293.146, 12.37939
1293.629, 13.65479
1294.111, 14.86035
1294.593, 17.61768
1295.075, 19.93262
1295.557, 18.49707
1296.039, 13.96387
1296.521, 11.83398
1297.003, 12.07471
1297.486, 12.43018
1297.968, 14.14062
1298.450, 12.93994
1298.932, 5.937500
1299.414, 0.6206050
1299.896, 2.839844
1300.378, 11.71533
1300.860, 10.51660
1301.343, 2.773926
1301.825, 0.0000000E+00
##END=



